Frequency[MHz];Amplitude RX1[mV] at pwm=110;SW-version 1.24, e-Callisto
 45.000;1330
 45.063;1403
 45.125;1311
 45.188;1298
 45.250;1291
 45.313;1301
 45.375;1306
 45.438;1308
 45.500;1303
 45.563;1303
 45.625;1303
 45.688;1308
 45.750;1318
 45.813;1315
 45.875;1311
 45.938;1308
 46.000;1315
 46.063;1318
 46.125;1320
 46.188;1320
 46.250;1323
 46.313;1320
 46.375;1323
 46.438;1323
 46.500;1315
 46.563;1325
 46.625;1328
 46.688;1328
 46.750;1333
 46.813;1318
 46.875;1328
 46.938;1333
 47.000;1328
 47.063;1330
 47.125;1335
 47.188;1330
 47.250;1340
 47.313;1340
 47.375;1342
 47.438;1337
 47.500;1333
 47.563;1335
 47.625;1342
 47.688;1337
 47.750;1337
 47.813;1340
 47.875;1337
 47.938;1347
 48.000;1345
 48.063;1342
 48.125;1342
 48.188;1350
 48.250;1345
 48.313;1342
 48.375;1342
 48.438;1333
 48.500;1337
 48.563;1337
 48.625;1347
 48.688;1354
 48.750;1345
 48.813;1347
 48.875;1352
 48.938;1342
 49.000;1350
 49.063;1347
 49.125;1350
 49.188;1345
 49.250;1354
 49.313;1347
 49.375;1350
 49.438;1347
 49.500;1354
 49.563;1352
 49.625;1345
 49.688;1354
 49.750;1352
 49.813;1347
 49.875;1350
 49.938;1350
 50.000;1369
 50.063;1384
 50.125;1384
 50.188;1369
 50.250;1367
 50.313;1359
 50.375;1350
 50.438;1352
 50.500;1352
 50.563;1350
 50.625;1350
 50.688;1352
 50.750;1357
 50.813;1352
 50.875;1345
 50.938;1347
 51.000;1350
 51.063;1352
 51.125;1352
 51.188;1352
 51.250;1357
 51.313;1350
 51.375;1354
 51.438;1347
 51.500;1354
 51.563;1362
 51.625;1354
 51.688;1367
 51.750;1359
 51.813;1359
 51.875;1357
 51.938;1354
 52.000;1359
 52.063;1352
 52.125;1354
 52.188;1359
 52.250;1364
 52.313;1354
 52.375;1357
 52.438;1364
 52.500;1364
 52.563;1367
 52.625;1362
 52.688;1367
 52.750;1359
 52.813;1362
 52.875;1359
 52.938;1369
 53.000;1362
 53.063;1359
 53.125;1364
 53.188;1357
 53.250;1354
 53.313;1364
 53.375;1362
 53.438;1369
 53.500;1364
 53.563;1367
 53.625;1362
 53.688;1357
 53.750;1367
 53.813;1367
 53.875;1364
 53.938;1367
 54.000;1364
 54.063;1372
 54.125;1374
 54.188;1367
 54.250;1367
 54.313;1381
 54.375;1376
 54.438;1369
 54.500;1374
 54.563;1359
 54.625;1379
 54.688;1372
 54.750;1369
 54.813;1379
 54.875;1369
 54.938;1362
 55.000;1374
 55.063;1374
 55.125;1386
 55.188;1389
 55.250;1376
 55.313;1384
 55.375;1384
 55.438;1381
 55.500;1376
 55.563;1381
 55.625;1381
 55.688;1376
 55.750;1389
 55.813;1374
 55.875;1384
 55.938;1376
 56.000;1379
 56.063;1374
 56.125;1389
 56.188;1386
 56.250;1391
 56.313;1379
 56.375;1386
 56.438;1389
 56.500;1379
 56.563;1389
 56.625;1384
 56.688;1391
 56.750;1386
 56.813;1391
 56.875;1391
 56.938;1384
 57.000;1391
 57.063;1391
 57.125;1389
 57.188;1389
 57.250;1396
 57.313;1389
 57.375;1394
 57.438;1396
 57.500;1403
 57.563;1394
 57.625;1389
 57.688;1389
 57.750;1389
 57.813;1396
 57.875;1401
 57.938;1391
 58.000;1391
 58.063;1398
 58.125;1391
 58.188;1401
 58.250;1401
 58.313;1386
 58.375;1396
 58.438;1398
 58.500;1394
 58.563;1401
 58.625;1394
 58.688;1394
 58.750;1396
 58.813;1394
 58.875;1389
 58.938;1394
 59.000;1403
 59.063;1394
 59.125;1403
 59.188;1401
 59.250;1396
 59.313;1396
 59.375;1398
 59.438;1403
 59.500;1398
 59.563;1403
 59.625;1394
 59.688;1401
 59.750;1406
 59.813;1401
 59.875;1401
 59.938;1394
 60.000;1401
 60.063;1396
 60.125;1396
 60.188;1406
 60.250;1403
 60.313;1398
 60.375;1389
 60.438;1396
 60.500;1403
 60.563;1406
 60.625;1394
 60.688;1398
 60.750;1403
 60.813;1401
 60.875;1394
 60.938;1398
 61.000;1406
 61.063;1398
 61.125;1403
 61.188;1391
 61.250;1396
 61.313;1398
 61.375;1391
 61.438;1401
 61.500;1398
 61.563;1396
 61.625;1398
 61.688;1398
 61.750;1398
 61.813;1403
 61.875;1398
 61.938;1394
 62.000;1394
 62.063;1398
 62.125;1391
 62.188;1398
 62.250;1398
 62.313;1391
 62.375;1394
 62.438;1398
 62.500;1396
 62.563;1396
 62.625;1398
 62.688;1398
 62.750;1391
 62.813;1389
 62.875;1396
 62.938;1394
 63.000;1396
 63.063;1398
 63.125;1398
 63.188;1389
 63.250;1394
 63.313;1391
 63.375;1398
 63.438;1386
 63.500;1394
 63.563;1398
 63.625;1394
 63.688;1396
 63.750;1389
 63.813;1391
 63.875;1386
 63.938;1384
 64.000;1391
 64.063;1396
 64.125;1384
 64.188;1389
 64.250;1389
 64.313;1386
 64.375;1391
 64.438;1403
 64.500;1379
 64.563;1389
 64.625;1389
 64.688;1391
 64.750;1396
 64.813;1389
 64.875;1391
 64.938;1389
 65.000;1386
 65.063;1384
 65.125;1379
 65.188;1384
 65.250;1403
 65.313;1394
 65.375;1386
 65.438;1396
 65.500;1376
 65.563;1389
 65.625;1394
 65.688;1394
 65.750;1389
 65.813;1386
 65.875;1386
 65.938;1386
 66.000;1389
 66.063;1401
 66.125;1384
 66.188;1389
 66.250;1384
 66.313;1386
 66.375;1398
 66.438;1401
 66.500;1406
 66.563;1389
 66.625;1401
 66.688;1389
 66.750;1389
 66.813;1391
 66.875;1389
 66.938;1394
 67.000;1394
 67.063;1391
 67.125;1394
 67.188;1389
 67.250;1401
 67.313;1394
 67.375;1398
 67.438;1394
 67.500;1396
 67.563;1401
 67.625;1386
 67.688;1394
 67.750;1389
 67.813;1386
 67.875;1396
 67.938;1401
 68.000;1401
 68.063;1389
 68.125;1401
 68.188;1398
 68.250;1398
 68.313;1394
 68.375;1396
 68.438;1398
 68.500;1396
 68.563;1396
 68.625;1403
 68.688;1403
 68.750;1391
 68.813;1396
 68.875;1403
 68.938;1396
 69.000;1401
 69.063;1396
 69.125;1401
 69.188;1406
 69.250;1396
 69.313;1398
 69.375;1403
 69.438;1398
 69.500;1394
 69.563;1391
 69.625;1408
 69.688;1403
 69.750;1401
 69.813;1403
 69.875;1403
 69.938;1401
 70.000;1408
 70.063;1406
 70.125;1396
 70.188;1403
 70.250;1401
 70.313;1401
 70.375;1408
 70.438;1406
 70.500;1398
 70.563;1406
 70.625;1411
 70.688;1403
 70.750;1401
 70.813;1408
 70.875;1396
 70.938;1403
 71.000;1411
 71.063;1408
 71.125;1398
 71.188;1398
 71.250;1408
 71.313;1398
 71.375;1398
 71.438;1408
 71.500;1403
 71.563;1398
 71.625;1406
 71.688;1394
 71.750;1401
 71.813;1394
 71.875;1408
 71.938;1418
 72.000;1416
 72.063;1413
 72.125;1398
 72.188;1398
 72.250;1406
 72.313;1406
 72.375;1413
 72.438;1406
 72.500;1411
 72.563;1401
 72.625;1406
 72.688;1411
 72.750;1406
 72.813;1398
 72.875;1406
 72.938;1408
 73.000;1403
 73.063;1406
 73.125;1406
 73.188;1401
 73.250;1408
 73.313;1403
 73.375;1406
 73.438;1406
 73.500;1403
 73.563;1398
 73.625;1401
 73.688;1406
 73.750;1403
 73.813;1401
 73.875;1394
 73.938;1403
 74.000;1398
 74.063;1406
 74.125;1396
 74.188;1389
 74.250;1401
 74.313;1403
 74.375;1391
 74.438;1403
 74.500;1403
 74.563;1394
 74.625;1403
 74.688;1406
 74.750;1398
 74.813;1396
 74.875;1408
 74.938;1403
 75.000;1403
 75.063;1401
 75.125;1411
 75.188;1398
 75.250;1408
 75.313;1401
 75.375;1396
 75.438;1398
 75.500;1401
 75.563;1391
 75.625;1401
 75.688;1394
 75.750;1403
 75.813;1389
 75.875;1403
 75.938;1398
 76.000;1391
 76.063;1391
 76.125;1403
 76.188;1394
 76.250;1391
 76.313;1396
 76.375;1401
 76.438;1398
 76.500;1389
 76.563;1381
 76.625;1391
 76.688;1376
 76.750;1391
 76.813;1396
 76.875;1389
 76.938;1384
 77.000;1379
 77.063;1386
 77.125;1379
 77.188;1389
 77.250;1389
 77.313;1374
 77.375;1391
 77.438;1386
 77.500;1391
 77.563;1389
 77.625;1386
 77.688;1384
 77.750;1389
 77.813;1389
 77.875;1384
 77.938;1379
 78.000;1381
 78.063;1376
 78.125;1386
 78.188;1394
 78.250;1389
 78.313;1374
 78.375;1381
 78.438;1381
 78.500;1386
 78.563;1389
 78.625;1386
 78.688;1386
 78.750;1379
 78.813;1384
 78.875;1376
 78.938;1374
 79.000;1381
 79.063;1386
 79.125;1389
 79.188;1381
 79.250;1374
 79.313;1386
 79.375;1379
 79.438;1381
 79.500;1386
 79.563;1386
 79.625;1374
 79.688;1386
 79.750;1379
 79.813;1379
 79.875;1381
 79.938;1379
 80.000;1394
 80.063;1386
 80.125;1389
 80.188;1372
 80.250;1386
 80.313;1384
 80.375;1384
 80.438;1386
 80.500;1389
 80.563;1386
 80.625;1381
 80.688;1381
 80.750;1379
 80.813;1389
 80.875;1381
 80.938;1381
 81.000;1381
 81.063;1364
 81.125;1386
 81.188;1386
 81.250;1386
 81.313;1381
 81.375;1384
 81.438;1386
 81.500;1379
 81.563;1386
 81.625;1376
 81.688;1389
 81.750;1386
 81.813;1394
 81.875;1394
 81.938;1384
 82.000;1384
 82.063;1386
 82.125;1379
 82.188;1384
 82.250;1381
 82.313;1384
 82.375;1391
 82.438;1389
 82.500;1386
 82.563;1394
 82.625;1386
 82.688;1391
 82.750;1386
 82.813;1386
 82.875;1384
 82.938;1389
 83.000;1381
 83.063;1381
 83.125;1386
 83.188;1384
 83.250;1384
 83.313;1391
 83.375;1386
 83.438;1386
 83.500;1389
 83.563;1391
 83.625;1384
 83.688;1389
 83.750;1389
 83.813;1389
 83.875;1394
 83.938;1384
 84.000;1394
 84.063;1394
 84.125;1389
 84.188;1398
 84.250;1384
 84.313;1386
 84.375;1389
 84.438;1394
 84.500;1379
 84.563;1389
 84.625;1384
 84.688;1384
 84.750;1376
 84.813;1391
 84.875;1384
 84.938;1381
 85.000;1391
 85.063;1398
 85.125;1394
 85.188;1389
 85.250;1384
 85.313;1391
 85.375;1379
 85.438;1389
 85.500;1386
 85.563;1389
 85.625;1384
 85.688;1376
 85.750;1386
 85.813;1376
 85.875;1376
 85.938;1376
 86.000;1381
 86.063;1384
 86.125;1379
 86.188;1389
 86.250;1381
 86.313;1379
 86.375;1376
 86.438;1384
 86.500;1372
 86.563;1386
 86.625;1376
 86.688;1374
 86.750;1386
 86.813;1369
 86.875;1374
 86.938;1369
 87.000;1362
 87.063;1376
 87.125;1374
 87.188;1376
 87.250;1379
 87.313;1374
 87.375;1367
 87.438;1372
 87.500;1374
 87.563;1364
 87.625;1362
 87.688;1364
 87.750;1369
 87.813;1362
 87.875;1364
 87.938;1367
 88.000;1364
 88.063;1357
 88.125;1364
 88.188;1367
 88.250;1362
 88.313;1362
 88.375;1367
 88.438;1362
 88.500;1354
 88.563;1359
 88.625;1357
 88.688;1362
 88.750;1359
 88.813;1354
 88.875;1354
 88.938;1347
 89.000;1357
 89.063;1364
 89.125;1359
 89.188;1350
 89.250;1352
 89.313;1347
 89.375;1350
 89.438;1350
 89.500;1354
 89.563;1354
 89.625;1352
 89.688;1345
 89.750;1352
 89.813;1357
 89.875;1347
 89.938;1350
 90.000;1342
 90.063;1350
 90.125;1333
 90.188;1350
 90.250;1345
 90.313;1345
 90.375;1340
 90.438;1337
 90.500;1335
 90.563;1354
 90.625;1340
 90.688;1342
 90.750;1342
 90.813;1340
 90.875;1333
 90.938;1333
 91.000;1337
 91.063;1330
 91.125;1328
 91.188;1335
 91.250;1340
 91.313;1335
 91.375;1342
 91.438;1330
 91.500;1340
 91.563;1342
 91.625;1328
 91.688;1345
 91.750;1333
 91.813;1335
 91.875;1342
 91.938;1345
 92.000;1330
 92.063;1337
 92.125;1342
 92.188;1337
 92.250;1335
 92.313;1340
 92.375;1342
 92.438;1335
 92.500;1335
 92.563;1333
 92.625;1325
 92.688;1335
 92.750;1340
 92.813;1335
 92.875;1342
 92.938;1340
 93.000;1337
 93.063;1335
 93.125;1335
 93.188;1330
 93.250;1342
 93.313;1337
 93.375;1337
 93.438;1337
 93.500;1330
 93.563;1340
 93.625;1328
 93.688;1333
 93.750;1335
 93.813;1337
 93.875;1335
 93.938;1345
 94.000;1337
 94.063;1340
 94.125;1340
 94.188;1337
 94.250;1333
 94.313;1337
 94.375;1337
 94.438;1335
 94.500;1337
 94.563;1340
 94.625;1325
 94.688;1340
 94.750;1330
 94.813;1330
 94.875;1330
 94.938;1340
 95.000;1335
 95.063;1350
 95.125;1340
 95.188;1330
 95.250;1325
 95.313;1345
 95.375;1345
 95.438;1340
 95.500;1342
 95.563;1340
 95.625;1340
 95.688;1333
 95.750;1328
 95.813;1337
 95.875;1325
 95.938;1333
 96.000;1325
 96.063;1335
 96.125;1347
 96.188;1362
 96.250;1357
 96.313;1350
 96.375;1352
 96.438;1342
 96.500;1330
 96.563;1325
 96.625;1328
 96.688;1335
 96.750;1333
 96.813;1328
 96.875;1330
 96.938;1328
 97.000;1333
 97.063;1330
 97.125;1328
 97.188;1333
 97.250;1325
 97.313;1328
 97.375;1318
 97.438;1323
 97.500;1333
 97.563;1325
 97.625;1328
 97.688;1330
 97.750;1340
 97.813;1320
 97.875;1325
 97.938;1318
 98.000;1323
 98.063;1330
 98.125;1320
 98.188;1325
 98.250;1320
 98.313;1328
 98.375;1318
 98.438;1328
 98.500;1320
 98.563;1318
 98.625;1323
 98.688;1318
 98.750;1306
 98.813;1320
 98.875;1318
 98.938;1315
 99.000;1311
 99.063;1311
 99.125;1303
 99.188;1306
 99.250;1306
 99.313;1308
 99.375;1306
 99.438;1301
 99.500;1298
 99.563;1298
 99.625;1298
 99.688;1301
 99.750;1301
 99.813;1298
 99.875;1298
 99.938;1301
100.000;1296
100.063;1301
100.125;1293
100.188;1293
100.250;1293
100.313;1293
100.375;1291
100.438;1291
100.500;1289
100.563;1276
100.625;1279
100.688;1271
100.750;1281
100.813;1279
100.875;1279
100.938;1276
101.000;1281
101.063;1276
101.125;1281
101.188;1276
101.250;1284
101.313;1267
101.375;1281
101.438;1274
101.500;1271
101.563;1281
101.625;1286
101.688;1269
101.750;1281
101.813;1291
101.875;1303
101.938;1308
102.000;1318
102.063;1308
102.125;1291
102.188;1274
102.250;1269
102.313;1271
102.375;1274
102.438;1274
102.500;1262
102.563;1269
102.625;1257
102.688;1262
102.750;1262
102.813;1259
102.875;1267
102.938;1252
103.000;1257
103.063;1267
103.125;1264
103.188;1252
103.250;1267
103.313;1267
103.375;1264
103.438;1252
103.500;1262
103.563;1259
103.625;1257
103.688;1257
103.750;1252
103.813;1259
103.875;1271
103.938;1259
104.000;1247
104.063;1250
104.125;1257
104.188;1262
104.250;1250
104.313;1257
104.375;1247
104.438;1250
104.500;1252
104.563;1257
104.625;1247
104.688;1252
104.750;1254
104.813;1250
104.875;1250
104.938;1247
105.000;1250
105.063;1247
105.125;1245
105.188;1245
105.250;1254
105.313;1247
105.375;1259
105.438;1250
105.500;1257
105.563;1250
105.625;1250
105.688;1250
105.750;1252
105.813;1257
105.875;1252
105.938;1257
106.000;1254
106.063;1250
106.125;1245
106.188;1257
106.250;1257
106.313;1250
106.375;1259
106.438;1250
106.500;1259
106.563;1245
106.625;1250
106.688;1257
106.750;1250
106.813;1254
106.875;1254
106.938;1254
107.000;1264
107.063;1252
107.125;1240
107.188;1240
107.250;1257
107.313;1252
107.375;1252
107.438;1254
107.500;1250
107.563;1250
107.625;1252
107.688;1252
107.750;1247
107.813;1252
107.875;1252
107.938;1250
108.000;1257
108.063;1254
108.125;1252
108.188;1250
108.250;1252
108.313;1247
108.375;1250
108.438;1250
108.500;1242
108.563;1254
108.625;1247
108.688;1250
108.750;1247
108.813;1242
108.875;1250
108.938;1252
109.000;1247
109.063;1245
109.125;1247
109.188;1245
109.250;1245
109.313;1250
109.375;1242
109.438;1250
109.500;1245
109.563;1250
109.625;1245
109.688;1240
109.750;1240
109.813;1240
109.875;1230
109.938;1232
110.000;1237
110.063;1237
110.125;1240
110.188;1232
110.250;1232
110.313;1230
110.375;1223
110.438;1228
110.500;1232
110.563;1232
110.625;1232
110.688;1230
110.750;1237
110.813;1237
110.875;1230
110.938;1220
111.000;1225
111.063;1223
111.125;1228
111.188;1220
111.250;1215
111.313;1230
111.375;1220
111.438;1218
111.500;1215
111.563;1223
111.625;1213
111.688;1215
111.750;1208
111.813;1223
111.875;1220
111.938;1218
112.000;1210
112.063;1213
112.125;1210
112.188;1201
112.250;1213
112.313;1210
112.375;1203
112.438;1206
112.500;1210
112.563;1203
112.625;1196
112.688;1198
112.750;1208
112.813;1206
112.875;1206
112.938;1210
113.000;1203
113.063;1210
113.125;1198
113.188;1196
113.250;1201
113.313;1193
113.375;1201
113.438;1201
113.500;1193
113.563;1191
113.625;1198
113.688;1188
113.750;1193
113.813;1198
113.875;1188
113.938;1188
114.000;1193
114.063;1184
114.125;1188
114.188;1186
114.250;1188
114.313;1188
114.375;1191
114.438;1188
114.500;1191
114.563;1181
114.625;1191
114.688;1186
114.750;1181
114.813;1186
114.875;1196
114.938;1184
115.000;1188
115.063;1184
115.125;1181
115.188;1184
115.250;1188
115.313;1188
115.375;1184
115.438;1184
115.500;1191
115.563;1186
115.625;1181
115.688;1188
115.750;1181
115.813;1196
115.875;1191
115.938;1188
116.000;1191
116.063;1188
116.125;1188
116.188;1186
116.250;1188
116.313;1188
116.375;1191
116.438;1184
116.500;1198
116.563;1201
116.625;1193
116.688;1196
116.750;1198
116.813;1193
116.875;1201
116.938;1201
117.000;1188
117.063;1198
117.125;1198
117.188;1193
117.250;1188
117.313;1198
117.375;1196
117.438;1193
117.500;1196
117.563;1191
117.625;1193
117.688;1201
117.750;1203
117.813;1201
117.875;1206
117.938;1206
118.000;1201
118.063;1206
118.125;1201
118.188;1201
118.250;1208
118.313;1203
118.375;1210
118.438;1208
118.500;1201
118.563;1203
118.625;1203
118.688;1208
118.750;1213
118.813;1210
118.875;1210
118.938;1208
119.000;1210
119.063;1203
119.125;1210
119.188;1208
119.250;1206
119.313;1220
119.375;1213
119.438;1213
119.500;1213
119.563;1213
119.625;1213
119.688;1223
119.750;1225
119.813;1213
119.875;1218
119.938;1213
120.000;1213
120.063;1218
120.125;1213
120.188;1210
120.250;1215
120.313;1210
120.375;1223
120.438;1208
120.500;1220
120.563;1218
120.625;1210
120.688;1218
120.750;1215
120.813;1220
120.875;1223
120.938;1213
121.000;1215
121.063;1218
121.125;1218
121.188;1215
121.250;1218
121.313;1220
121.375;1218
121.438;1210
121.500;1218
121.563;1215
121.625;1210
121.688;1223
121.750;1218
121.813;1218
121.875;1220
121.938;1206
122.000;1218
122.063;1208
122.125;1218
122.188;1215
122.250;1210
122.313;1213
122.375;1215
122.438;1210
122.500;1218
122.563;1215
122.625;1210
122.688;1210
122.750;1215
122.813;1208
122.875;1208
122.938;1206
123.000;1201
123.063;1208
123.125;1201
123.188;1208
123.250;1213
123.313;1210
123.375;1215
123.438;1203
123.500;1206
123.563;1203
123.625;1203
123.688;1206
123.750;1208
123.813;1201
123.875;1203
123.938;1206
124.000;1208
124.063;1201
124.125;1206
124.188;1206
124.250;1206
124.313;1201
124.375;1193
124.438;1203
124.500;1206
124.563;1201
124.625;1198
124.688;1188
124.750;1203
124.813;1201
124.875;1201
124.938;1206
125.000;1196
125.063;1198
125.125;1201
125.188;1198
125.250;1201
125.313;1196
125.375;1198
125.438;1208
125.500;1203
125.563;1203
125.625;1203
125.688;1208
125.750;1201
125.813;1193
125.875;1206
125.938;1196
126.000;1206
126.063;1196
126.125;1208
126.188;1198
126.250;1206
126.313;1203
126.375;1206
126.438;1206
126.500;1210
126.563;1198
126.625;1206
126.688;1206
126.750;1210
126.813;1206
126.875;1206
126.938;1198
127.000;1203
127.063;1206
127.125;1208
127.188;1203
127.250;1208
127.313;1210
127.375;1208
127.438;1208
127.500;1210
127.563;1210
127.625;1215
127.688;1208
127.750;1213
127.813;1210
127.875;1213
127.938;1210
128.000;1213
128.063;1213
128.125;1208
128.188;1225
128.250;1220
128.313;1220
128.375;1218
128.438;1213
128.500;1223
128.563;1228
128.625;1215
128.688;1225
128.750;1220
128.813;1220
128.875;1223
128.938;1237
129.000;1237
129.063;1230
129.125;1232
129.188;1228
129.250;1230
129.313;1230
129.375;1232
129.438;1237
129.500;1237
129.563;1230
129.625;1237
129.688;1230
129.750;1235
129.813;1230
129.875;1242
129.938;1230
130.000;1232
130.063;1232
130.125;1242
130.188;1242
130.250;1237
130.313;1245
130.375;1242
130.438;1250
130.500;1245
130.563;1252
130.625;1257
130.688;1250
130.750;1250
130.813;1247
130.875;1254
130.938;1250
131.000;1257
131.063;1247
131.125;1250
131.188;1262
131.250;1257
131.313;1257
131.375;1247
131.438;1262
131.500;1259
131.563;1267
131.625;1252
131.688;1257
131.750;1254
131.813;1257
131.875;1264
131.938;1271
132.000;1259
132.063;1259
132.125;1259
132.188;1259
132.250;1264
132.313;1252
132.375;1269
132.438;1262
132.500;1267
132.563;1262
132.625;1257
132.688;1264
132.750;1264
132.813;1264
132.875;1271
132.938;1267
133.000;1264
133.063;1254
133.125;1262
133.188;1259
133.250;1257
133.313;1262
133.375;1252
133.438;1264
133.500;1262
133.563;1250
133.625;1259
133.688;1257
133.750;1264
133.813;1257
133.875;1267
133.938;1264
134.000;1262
134.063;1269
134.125;1259
134.188;1262
134.250;1250
134.313;1254
134.375;1257
134.438;1259
134.500;1257
134.563;1254
134.625;1252
134.688;1257
134.750;1252
134.813;1252
134.875;1257
134.938;1257
135.000;1264
135.063;1254
135.125;1264
135.188;1252
135.250;1247
135.313;1257
135.375;1247
135.438;1242
135.500;1250
135.563;1254
135.625;1254
135.688;1252
135.750;1247
135.813;1242
135.875;1245
135.938;1250
136.000;1247
136.063;1259
136.125;1254
136.188;1245
136.250;1254
136.313;1259
136.375;1242
136.438;1247
136.500;1247
136.563;1262
136.625;1240
136.688;1242
136.750;1257
136.813;1250
136.875;1257
136.938;1247
137.000;1257
137.063;1250
137.125;1252
137.188;1250
137.250;1250
137.313;1257
137.375;1240
137.438;1247
137.500;1237
137.563;1257
137.625;1254
137.688;1252
137.750;1250
137.813;1252
137.875;1254
137.938;1245
138.000;1245
138.063;1247
138.125;1247
138.188;1252
138.250;1257
138.313;1252
138.375;1250
138.438;1245
138.500;1252
138.563;1259
138.625;1250
138.688;1252
138.750;1264
138.813;1254
138.875;1247
138.938;1254
139.000;1250
139.063;1250
139.125;1252
139.188;1254
139.250;1250
139.313;1259
139.375;1257
139.438;1254
139.500;1252
139.563;1259
139.625;1259
139.688;1257
139.750;1252
139.813;1269
139.875;1257
139.938;1252
140.000;1259
140.063;1264
140.125;1257
140.188;1267
140.250;1267
140.313;1264
140.375;1267
140.438;1269
140.500;1271
140.563;1264
140.625;1274
140.688;1274
140.750;1271
140.813;1271
140.875;1269
140.938;1276
141.000;1271
141.063;1271
141.125;1281
141.188;1276
141.250;1271
141.313;1269
141.375;1276
141.438;1279
141.500;1279
141.563;1284
141.625;1281
141.688;1276
141.750;1281
141.813;1279
141.875;1281
141.938;1284
142.000;1279
142.063;1279
142.125;1284
142.188;1286
142.250;1289
142.313;1281
142.375;1289
142.438;1281
142.500;1289
142.563;1289
142.625;1293
142.688;1291
142.750;1281
142.813;1286
142.875;1284
142.938;1298
143.000;1286
143.063;1291
143.125;1291
143.188;1296
143.250;1289
143.313;1303
143.375;1291
143.438;1296
143.500;1291
143.563;1289
143.625;1291
143.688;1296
143.750;1303
143.813;1296
143.875;1296
143.938;1303
144.000;1296
144.063;1298
144.125;1293
144.188;1286
144.250;1293
144.313;1293
144.375;1296
144.438;1298
144.500;1296
144.563;1289
144.625;1296
144.688;1298
144.750;1291
144.813;1298
144.875;1298
144.938;1296
145.000;1296
145.063;1296
145.125;1289
145.188;1296
145.250;1291
145.313;1291
145.375;1301
145.438;1293
145.500;1296
145.563;1298
145.625;1301
145.688;1298
145.750;1291
145.813;1291
145.875;1298
145.938;1289
146.000;1293
146.063;1289
146.125;1293
146.188;1289
146.250;1296
146.313;1291
146.375;1296
146.438;1296
146.500;1286
146.563;1291
146.625;1289
146.688;1286
146.750;1296
146.813;1286
146.875;1293
146.938;1296
147.000;1274
147.063;1293
147.125;1286
147.188;1289
147.250;1291
147.313;1279
147.375;1279
147.438;1291
147.500;1276
147.563;1289
147.625;1284
147.688;1284
147.750;1286
147.813;1286
147.875;1284
147.938;1289
148.000;1289
148.063;1291
148.125;1289
148.188;1286
148.250;1279
148.313;1284
148.375;1276
148.438;1271
148.500;1276
148.563;1286
148.625;1286
148.688;1281
148.750;1281
148.813;1281
148.875;1274
148.938;1276
149.000;1274
149.063;1286
149.125;1271
149.188;1279
149.250;1276
149.313;1281
149.375;1279
149.438;1276
149.500;1279
149.563;1279
149.625;1281
149.688;1291
149.750;1276
149.813;1276
149.875;1276
149.938;1281
150.000;1284
150.063;1279
150.125;1291
150.188;1281
150.250;1289
150.313;1284
150.375;1284
150.438;1291
150.500;1289
150.563;1284
150.625;1274
150.688;1286
150.750;1284
150.813;1281
150.875;1289
150.938;1289
151.000;1286
151.063;1289
151.125;1279
151.188;1286
151.250;1281
151.313;1289
151.375;1289
151.438;1281
151.500;1291
151.563;1289
151.625;1291
151.688;1291
151.750;1284
151.813;1296
151.875;1296
151.938;1291
152.000;1289
152.063;1291
152.125;1293
152.188;1289
152.250;1291
152.313;1291
152.375;1296
152.438;1301
152.500;1298
152.563;1293
152.625;1296
152.688;1298
152.750;1298
152.813;1293
152.875;1296
152.938;1293
153.000;1298
153.063;1298
153.125;1298
153.188;1293
153.250;1303
153.313;1313
153.375;1311
153.438;1298
153.500;1315
153.563;1315
153.625;1306
153.688;1301
153.750;1313
153.813;1303
153.875;1303
153.938;1311
154.000;1308
154.063;1298
154.125;1308
154.188;1313
154.250;1313
154.313;1311
154.375;1315
154.438;1311
154.500;1313
154.563;1311
154.625;1313
154.688;1311
154.750;1308
154.813;1311
154.875;1323
154.938;1315
155.000;1320
155.063;1318
155.125;1298
155.188;1303
155.250;1311
155.313;1323
155.375;1315
155.438;1308
155.500;1311
155.563;1313
155.625;1313
155.688;1320
155.750;1313
155.813;1313
155.875;1308
155.938;1315
156.000;1315
156.063;1315
156.125;1320
156.188;1318
156.250;1320
156.313;1313
156.375;1318
156.438;1320
156.500;1311
156.563;1318
156.625;1315
156.688;1320
156.750;1311
156.813;1313
156.875;1320
156.938;1311
157.000;1315
157.063;1313
157.125;1311
157.188;1308
157.250;1313
157.313;1313
157.375;1313
157.438;1311
157.500;1311
157.563;1301
157.625;1303
157.688;1313
157.750;1308
157.813;1318
157.875;1301
157.938;1308
158.000;1303
158.063;1308
158.125;1311
158.188;1301
158.250;1308
158.313;1311
158.375;1315
158.438;1308
158.500;1308
158.563;1308
158.625;1318
158.688;1296
158.750;1298
158.813;1303
158.875;1306
158.938;1303
159.000;1298
159.063;1293
159.125;1301
159.188;1303
159.250;1298
159.313;1301
159.375;1293
159.438;1293
159.500;1301
159.563;1301
159.625;1306
159.688;1291
159.750;1291
159.813;1296
159.875;1298
159.938;1298
160.000;1289
160.063;1293
160.125;1293
160.188;1293
160.250;1286
160.313;1296
160.375;1284
160.438;1296
160.500;1286
160.563;1296
160.625;1281
160.688;1289
160.750;1291
160.813;1286
160.875;1286
160.938;1284
161.000;1296
161.063;1293
161.125;1286
161.188;1298
161.250;1291
161.313;1289
161.375;1293
161.438;1291
161.500;1286
161.563;1276
161.625;1286
161.688;1291
161.750;1289
161.813;1291
161.875;1293
161.938;1289
162.000;1289
162.063;1286
162.125;1289
162.188;1284
162.250;1291
162.313;1289
162.375;1281
162.438;1286
162.500;1296
162.563;1289
162.625;1289
162.688;1286
162.750;1293
162.813;1291
162.875;1296
162.938;1289
163.000;1291
163.063;1293
163.125;1293
163.188;1298
163.250;1296
163.313;1289
163.375;1298
163.438;1298
163.500;1296
163.563;1298
163.625;1291
163.688;1301
163.750;1298
163.813;1289
163.875;1291
163.938;1301
164.000;1296
164.063;1298
164.125;1293
164.188;1291
164.250;1293
164.313;1301
164.375;1296
164.438;1298
164.500;1296
164.563;1298
164.625;1301
164.688;1301
164.750;1308
164.813;1303
164.875;1296
164.938;1308
165.000;1296
165.063;1303
165.125;1303
165.188;1306
165.250;1308
165.313;1315
165.375;1303
165.438;1301
165.500;1311
165.563;1306
165.625;1298
165.688;1301
165.750;1318
165.813;1311
165.875;1313
165.938;1325
166.000;1308
166.063;1311
166.125;1306
166.188;1306
166.250;1303
166.313;1301
166.375;1306
166.438;1315
166.500;1313
166.563;1313
166.625;1320
166.688;1313
166.750;1298
166.813;1311
166.875;1301
166.938;1318
167.000;1325
167.063;1323
167.125;1311
167.188;1313
167.250;1320
167.313;1311
167.375;1315
167.438;1306
167.500;1306
167.563;1313
167.625;1313
167.688;1311
167.750;1318
167.813;1313
167.875;1315
167.938;1308
168.000;1313
168.063;1313
168.125;1318
168.188;1311
168.250;1303
168.313;1311
168.375;1308
168.438;1308
168.500;1306
168.563;1323
168.625;1315
168.688;1308
168.750;1313
168.813;1308
168.875;1303
168.938;1306
169.000;1315
169.063;1308
169.125;1306
169.188;1323
169.250;1308
169.313;1308
169.375;1308
169.438;1315
169.500;1308
169.563;1306
169.625;1303
169.688;1296
169.750;1311
169.813;1308
169.875;1298
169.938;1303
170.000;1298
170.063;1301
170.125;1308
170.188;1306
170.250;1306
170.313;1301
170.375;1308
170.438;1298
170.500;1298
170.563;1298
170.625;1306
170.688;1296
170.750;1306
170.813;1303
170.875;1289
170.938;1298
171.000;1296
171.063;1289
171.125;1413
171.188;1420
171.250;1433
171.313;1430
171.375;1445
171.438;1442
171.500;1435
171.563;1423
171.625;1391
171.688;1374
171.750;1350
171.813;1337
171.875;1335
171.938;1335
172.000;1333
172.063;1337
172.125;1335
172.188;1325
172.250;1340
172.313;1337
172.375;1328
172.438;1330
172.500;1320
172.563;1335
172.625;1337
172.688;1333
172.750;1330
172.813;1337
172.875;1330
172.938;1335
173.000;1328
173.063;1325
173.125;1318
173.188;1325
173.250;1333
173.313;1330
173.375;1328
173.438;1330
173.500;1318
173.563;1335
173.625;1328
173.688;1323
173.750;1323
173.813;1320
173.875;1330
173.938;1320
174.000;1325
174.063;1323
174.125;1333
174.188;1318
174.250;1318
174.313;1323
174.375;1328
174.438;1320
174.500;1320
174.563;1323
174.625;1335
174.688;1333
174.750;1325
174.813;1320
174.875;1330
174.938;1328
175.000;1325
175.063;1318
175.125;1323
175.188;1333
175.250;1320
175.313;1323
175.375;1318
175.438;1323
175.500;1330
175.563;1323
175.625;1320
175.688;1325
175.750;1328
175.813;1323
175.875;1337
175.938;1333
176.000;1325
176.063;1323
176.125;1328
176.188;1330
176.250;1328
176.313;1325
176.375;1335
176.438;1328
176.500;1323
176.563;1328
176.625;1323
176.688;1325
176.750;1330
176.813;1328
176.875;1328
176.938;1330
177.000;1323
177.063;1330
177.125;1333
177.188;1333
177.250;1330
177.313;1330
177.375;1333
177.438;1330
177.500;1333
177.563;1335
177.625;1333
177.688;1330
177.750;1337
177.813;1325
177.875;1330
177.938;1337
178.000;1328
178.063;1328
178.125;1333
178.188;1335
178.250;1333
178.313;1337
178.375;1333
178.438;1328
178.500;1335
178.563;1328
178.625;1337
178.688;1328
178.750;1335
178.813;1335
178.875;1333
178.938;1337
179.000;1333
179.063;1330
179.125;1340
179.188;1345
179.250;1330
179.313;1330
179.375;1340
179.438;1335
179.500;1333
179.563;1328
179.625;1333
179.688;1333
179.750;1333
179.813;1335
179.875;1335
179.938;1337
180.000;1335
180.063;1330
180.125;1325
180.188;1337
180.250;1333
180.313;1318
180.375;1330
180.438;1337
180.500;1333
180.563;1335
180.625;1333
180.688;1335
180.750;1340
180.813;1335
180.875;1325
180.938;1337
181.000;1323
181.063;1330
181.125;1323
181.188;1340
181.250;1333
181.313;1333
181.375;1330
181.438;1330
181.500;1323
181.563;1335
181.625;1333
181.688;1325
181.750;1330
181.813;1328
181.875;1330
181.938;1325
182.000;1328
182.063;1325
182.125;1323
182.188;1323
182.250;1323
182.313;1320
182.375;1320
182.438;1323
182.500;1318
182.563;1323
182.625;1320
182.688;1320
182.750;1323
182.813;1325
182.875;1325
182.938;1311
183.000;1325
183.063;1323
183.125;1315
183.188;1320
183.250;1323
183.313;1328
183.375;1318
183.438;1315
183.500;1315
183.563;1318
183.625;1315
183.688;1311
183.750;1318
183.813;1318
183.875;1318
183.938;1313
184.000;1323
184.063;1328
184.125;1323
184.188;1318
184.250;1313
184.313;1318
184.375;1313
184.438;1318
184.500;1306
184.563;1313
184.625;1320
184.688;1318
184.750;1318
184.813;1313
184.875;1311
184.938;1308
185.000;1315
185.063;1308
185.125;1308
185.188;1311
185.250;1308
185.313;1320
185.375;1308
185.438;1315
185.500;1320
185.563;1318
185.625;1315
185.688;1306
185.750;1303
185.813;1306
185.875;1320
185.938;1306
186.000;1315
186.063;1308
186.125;1313
186.188;1315
186.250;1315
186.313;1315
186.375;1315
186.438;1320
186.500;1313
186.563;1308
186.625;1318
186.688;1306
186.750;1303
186.813;1313
186.875;1303
186.938;1318
187.000;1313
187.063;1315
187.125;1320
187.188;1308
187.250;1308
187.313;1315
187.375;1311
187.438;1296
187.500;1320
187.563;1318
187.625;1320
187.688;1315
187.750;1318
187.813;1315
187.875;1320
187.938;1313
188.000;1311
188.063;1323
188.125;1313
188.188;1313
188.250;1318
188.313;1313
188.375;1318
188.438;1320
188.500;1328
188.563;1318
188.625;1320
188.688;1313
188.750;1320
188.813;1318
188.875;1323
188.938;1318
189.000;1323
189.063;1325
189.125;1325
189.188;1325
189.250;1315
189.313;1325
189.375;1328
189.438;1323
189.500;1328
189.563;1318
189.625;1335
189.688;1333
189.750;1325
189.813;1320
189.875;1323
189.938;1330
190.000;1328
190.063;1333
190.125;1325
190.188;1330
190.250;1335
190.313;1323
190.375;1323
190.438;1320
190.500;1323
190.563;1330
190.625;1320
190.688;1333
190.750;1320
190.813;1325
190.875;1315
190.938;1320
191.000;1330
191.063;1330
191.125;1323
191.188;1330
191.250;1323
191.313;1330
191.375;1328
191.438;1325
191.500;1330
191.563;1330
191.625;1325
191.688;1325
191.750;1325
191.813;1328
191.875;1330
191.938;1333
192.000;1328
192.063;1330
192.125;1330
192.188;1320
192.250;1325
192.313;1330
192.375;1328
192.438;1325
192.500;1330
192.563;1325
192.625;1328
192.688;1323
192.750;1330
192.813;1328
192.875;1328
192.938;1328
193.000;1328
193.063;1315
193.125;1323
193.188;1325
193.250;1335
193.313;1328
193.375;1323
193.438;1330
193.500;1325
193.563;1335
193.625;1325
193.688;1325
193.750;1328
193.813;1315
193.875;1330
193.938;1323
194.000;1318
194.063;1325
194.125;1315
194.188;1323
194.250;1318
194.313;1323
194.375;1325
194.438;1313
194.500;1318
194.563;1318
194.625;1325
194.688;1323
194.750;1323
194.813;1318
194.875;1320
194.938;1315
195.000;1323
195.063;1315
195.125;1318
195.188;1323
195.250;1313
195.313;1313
195.375;1315
195.438;1315
195.500;1301
195.563;1315
195.625;1325
195.688;1313
195.750;1315
195.813;1313
195.875;1311
195.938;1313
196.000;1311
196.063;1320
196.125;1320
196.188;1308
196.250;1311
196.313;1308
196.375;1308
196.438;1311
196.500;1308
196.563;1311
196.625;1313
196.688;1315
196.750;1306
196.813;1306
196.875;1313
196.938;1303
197.000;1311
197.063;1306
197.125;1301
197.188;1315
197.250;1313
197.313;1315
197.375;1315
197.438;1306
197.500;1311
197.563;1311
197.625;1311
197.688;1313
197.750;1315
197.813;1315
197.875;1306
197.938;1313
198.000;1308
198.063;1306
198.125;1298
198.188;1308
198.250;1306
198.313;1303
198.375;1308
198.438;1313
198.500;1323
198.563;1318
198.625;1315
198.688;1313
198.750;1323
198.813;1298
198.875;1311
198.938;1318
199.000;1311
199.063;1308
199.125;1311
199.188;1313
199.250;1311
199.313;1318
199.375;1311
199.438;1308
199.500;1311
199.563;1323
199.625;1311
199.688;1323
199.750;1313
199.813;1308
199.875;1320
199.938;1296
200.000;1315
200.063;1318
200.125;1318
200.188;1315
200.250;1318
200.313;1308
200.375;1313
200.438;1323
200.500;1323
200.563;1318
200.625;1315
200.688;1328
200.750;1315
200.813;1318
200.875;1315
200.938;1318
201.000;1328
201.063;1318
201.125;1325
201.188;1320
201.250;1320
201.313;1311
201.375;1313
201.438;1328
201.500;1323
201.563;1325
201.625;1320
201.688;1318
201.750;1328
201.813;1330
201.875;1318
201.938;1323
202.000;1328
202.063;1340
202.125;1335
202.188;1330
202.250;1325
202.313;1325
202.375;1325
202.438;1333
202.500;1325
202.563;1330
202.625;1325
202.688;1325
202.750;1320
202.813;1328
202.875;1323
202.938;1325
203.000;1328
203.063;1320
203.125;1330
203.188;1328
203.250;1330
203.313;1333
203.375;1325
203.438;1325
203.500;1323
203.563;1337
203.625;1325
203.688;1330
203.750;1330
203.813;1330
203.875;1333
203.938;1333
204.000;1318
204.063;1330
204.125;1330
204.188;1337
204.250;1325
204.313;1325
204.375;1325
204.438;1328
204.500;1325
204.563;1330
204.625;1328
204.688;1333
204.750;1333
204.813;1328
204.875;1333
204.938;1330
205.000;1325
205.063;1328
205.125;1328
205.188;1325
205.250;1333
205.313;1328
205.375;1325
205.438;1323
205.500;1323
205.563;1323
205.625;1330
205.688;1323
205.750;1328
205.813;1320
205.875;1325
205.938;1330
206.000;1323
206.063;1323
206.125;1323
206.188;1328
206.250;1330
206.313;1323
206.375;1323
206.438;1328
206.500;1318
206.563;1318
206.625;1323
206.688;1318
206.750;1318
206.813;1320
206.875;1315
206.938;1323
207.000;1318
207.063;1323
207.125;1313
207.188;1315
207.250;1325
207.313;1315
207.375;1323
207.438;1318
207.500;1320
207.563;1311
207.625;1318
207.688;1323
207.750;1313
207.813;1315
207.875;1318
207.938;1323
208.000;1325
208.063;1318
208.125;1315
208.188;1313
208.250;1318
208.313;1318
208.375;1315
208.438;1320
208.500;1318
208.563;1298
208.625;1318
208.688;1313
208.750;1311
208.813;1315
208.875;1308
208.938;1306
209.000;1320
209.063;1313
209.125;1323
209.188;1315
209.250;1318
209.313;1311
209.375;1308
209.438;1318
209.500;1320
209.563;1320
209.625;1306
209.688;1311
209.750;1315
209.813;1313
209.875;1311
209.938;1318
210.000;1311
210.063;1315
210.125;1311
210.188;1315
210.250;1313
210.313;1318
210.375;1315
210.438;1308
210.500;1315
210.563;1323
210.625;1313
210.688;1320
210.750;1313
210.813;1320
210.875;1315
210.938;1318
211.000;1318
211.063;1320
211.125;1318
211.188;1315
211.250;1320
211.313;1313
211.375;1318
211.438;1318
211.500;1315
211.563;1315
211.625;1315
211.688;1325
211.750;1328
211.813;1315
211.875;1323
211.938;1318
212.000;1320
212.063;1328
212.125;1325
212.188;1320
212.250;1318
212.313;1325
212.375;1328
212.438;1328
212.500;1323
212.563;1313
212.625;1323
212.688;1325
212.750;1320
212.813;1328
212.875;1313
212.938;1323
213.000;1325
213.063;1323
213.125;1323
213.188;1333
213.250;1323
213.313;1325
213.375;1323
213.438;1328
213.500;1335
213.563;1328
213.625;1325
213.688;1333
213.750;1328
213.813;1330
213.875;1337
213.938;1330
214.000;1330
214.063;1333
214.125;1328
214.188;1340
214.250;1337
214.313;1337
214.375;1330
214.438;1328
214.500;1335
214.563;1328
214.625;1333
214.688;1328
214.750;1328
214.813;1333
214.875;1330
214.938;1330
215.000;1323
215.063;1335
215.125;1330
215.188;1340
215.250;1328
215.313;1340
215.375;1340
215.438;1333
215.500;1345
215.563;1335
215.625;1333
215.688;1340
215.750;1335
215.813;1342
215.875;1337
215.938;1335
216.000;1328
216.063;1337
216.125;1333
216.188;1330
216.250;1323
216.313;1337
216.375;1328
216.438;1335
216.500;1333
216.563;1333
216.625;1337
216.688;1323
216.750;1330
216.813;1335
216.875;1333
216.938;1330
217.000;1333
217.063;1328
217.125;1342
217.188;1335
217.250;1328
217.313;1325
217.375;1330
217.438;1333
217.500;1325
217.563;1320
217.625;1340
217.688;1330
217.750;1330
217.813;1335
217.875;1323
217.938;1323
218.000;1330
218.063;1333
218.125;1328
218.188;1325
218.250;1325
218.313;1325
218.375;1318
218.438;1330
218.500;1330
218.563;1320
218.625;1323
218.688;1323
218.750;1325
218.813;1337
218.875;1325
218.938;1313
219.000;1328
219.063;1320
219.125;1318
219.188;1323
219.250;1323
219.313;1335
219.375;1330
219.438;1323
219.500;1325
219.563;1320
219.625;1323
219.688;1328
219.750;1323
219.813;1328
219.875;1320
219.938;1318
220.000;1318
220.063;1325
220.125;1330
220.188;1320
220.250;1320
220.313;1318
220.375;1320
220.438;1313
220.500;1318
220.563;1318
220.625;1320
220.688;1328
220.750;1315
220.813;1328
220.875;1323
220.938;1315
221.000;1315
221.063;1315
221.125;1318
221.188;1325
221.250;1315
221.313;1328
221.375;1325
221.438;1323
221.500;1320
221.563;1325
221.625;1323
221.688;1323
221.750;1323
221.813;1325
221.875;1318
221.938;1320
222.000;1325
222.063;1320
222.125;1323
222.188;1323
222.250;1318
222.313;1315
222.375;1315
222.438;1320
222.500;1318
222.563;1318
222.625;1323
222.688;1313
222.750;1323
222.813;1323
222.875;1325
222.938;1325
223.000;1323
223.063;1323
223.125;1318
223.188;1323
223.250;1318
223.313;1325
223.375;1325
223.438;1330
223.500;1320
223.563;1333
223.625;1323
223.688;1320
223.750;1330
223.813;1330
223.875;1325
223.938;1313
224.000;1330
224.063;1328
224.125;1325
224.188;1333
224.250;1335
224.313;1325
224.375;1328
224.438;1333
224.500;1333
224.563;1333
224.625;1337
224.688;1330
224.750;1328
224.813;1330
224.875;1333
224.938;1333
225.000;1328
225.063;1335
225.125;1330
225.188;1333
225.250;1325
225.313;1333
225.375;1330
225.438;1337
225.500;1342
225.563;1328
225.625;1330
225.688;1328
225.750;1323
225.813;1342
225.875;1335
225.938;1335
226.000;1345
226.063;1342
226.125;1337
226.188;1330
226.250;1333
226.313;1337
226.375;1335
226.438;1330
226.500;1337
226.563;1337
226.625;1333
226.688;1342
226.750;1335
226.813;1340
226.875;1345
226.938;1335
227.000;1335
227.063;1335
227.125;1337
227.188;1333
227.250;1342
227.313;1337
227.375;1337
227.438;1345
227.500;1330
227.563;1330
227.625;1335
227.688;1342
227.750;1340
227.813;1342
227.875;1347
227.938;1347
228.000;1340
228.063;1335
228.125;1342
228.188;1337
228.250;1335
228.313;1330
228.375;1330
228.438;1345
228.500;1337
228.563;1342
228.625;1347
228.688;1337
228.750;1347
228.813;1335
228.875;1335
228.938;1330
229.000;1335
229.063;1340
229.125;1333
229.188;1342
229.250;1345
229.313;1340
229.375;1342
229.438;1340
229.500;1340
229.563;1335
229.625;1342
229.688;1330
229.750;1337
229.813;1337
229.875;1340
229.938;1333
230.000;1328
230.063;1330
230.125;1337
230.188;1342
230.250;1340
230.313;1340
230.375;1340
230.438;1345
230.500;1333
230.563;1335
230.625;1333
230.688;1345
230.750;1330
230.813;1328
230.875;1337
230.938;1337
231.000;1335
231.063;1335
231.125;1333
231.188;1328
231.250;1337
231.313;1340
231.375;1330
231.438;1330
231.500;1325
231.563;1335
231.625;1340
231.688;1325
231.750;1330
231.813;1333
231.875;1330
231.938;1333
232.000;1335
232.063;1330
232.125;1330
232.188;1333
232.250;1323
232.313;1337
232.375;1323
232.438;1330
232.500;1333
232.563;1330
232.625;1337
232.688;1330
232.750;1333
232.813;1315
232.875;1333
232.938;1320
233.000;1323
233.063;1328
233.125;1325
233.188;1333
233.250;1330
233.313;1333
233.375;1337
233.438;1330
233.500;1333
233.563;1330
233.625;1325
233.688;1335
233.750;1323
233.813;1323
233.875;1328
233.938;1333
234.000;1333
234.063;1333
234.125;1328
234.188;1333
234.250;1335
234.313;1325
234.375;1335
234.438;1333
234.500;1333
234.563;1333
234.625;1328
234.688;1333
234.750;1335
234.813;1337
234.875;1337
234.938;1333
235.000;1333
235.063;1330
235.125;1330
235.188;1330
235.250;1335
235.313;1335
235.375;1335
235.438;1330
235.500;1340
235.563;1337
235.625;1337
235.688;1330
235.750;1323
235.813;1330
235.875;1333
235.938;1333
236.000;1325
236.063;1330
236.125;1330
236.188;1330
236.250;1323
236.313;1335
236.375;1335
236.438;1328
236.500;1335
236.563;1335
236.625;1342
236.688;1342
236.750;1333
236.813;1342
236.875;1335
236.938;1335
237.000;1333
237.063;1337
237.125;1340
237.188;1333
237.250;1345
237.313;1330
237.375;1345
237.438;1333
237.500;1333
237.563;1335
237.625;1345
237.688;1337
237.750;1345
237.813;1354
237.875;1340
237.938;1337
238.000;1347
238.063;1345
238.125;1342
238.188;1345
238.250;1335
238.313;1333
238.375;1345
238.438;1347
238.500;1342
238.563;1342
238.625;1347
238.688;1357
238.750;1340
238.813;1333
238.875;1340
238.938;1340
239.000;1350
239.063;1350
239.125;1347
239.188;1337
239.250;1347
239.313;1345
239.375;1347
239.438;1342
239.500;1354
239.563;1335
239.625;1347
239.688;1359
239.750;1352
239.813;1345
239.875;1352
239.938;1350
240.000;1352
240.063;1342
240.125;1352
240.188;1340
240.250;1352
240.313;1350
240.375;1347
240.438;1354
240.500;1342
240.563;1347
240.625;1350
240.688;1342
240.750;1352
240.813;1352
240.875;1347
240.938;1345
241.000;1350
241.063;1350
241.125;1352
241.188;1342
241.250;1345
241.313;1345
241.375;1357
241.438;1340
241.500;1352
241.563;1350
241.625;1357
241.688;1345
241.750;1340
241.813;1345
241.875;1347
241.938;1347
242.000;1340
242.063;1345
242.125;1350
242.188;1337
242.250;1345
242.313;1337
242.375;1345
242.438;1352
242.500;1347
242.563;1350
242.625;1345
242.688;1342
242.750;1337
242.813;1347
242.875;1347
242.938;1342
243.000;1345
243.063;1340
243.125;1342
243.188;1333
243.250;1333
243.313;1337
243.375;1340
243.438;1350
243.500;1345
243.563;1345
243.625;1350
243.688;1342
243.750;1335
243.813;1345
243.875;1345
243.938;1345
244.000;1342
244.063;1337
244.125;1340
244.188;1333
244.250;1328
244.313;1342
244.375;1337
244.438;1342
244.500;1337
244.563;1347
244.625;1345
244.688;1340
244.750;1340
244.813;1342
244.875;1337
244.938;1330
245.000;1345
245.063;1342
245.125;1335
245.188;1340
245.250;1342
245.313;1342
245.375;1337
245.438;1337
245.500;1342
245.563;1337
245.625;1337
245.688;1342
245.750;1345
245.813;1340
245.875;1340
245.938;1337
246.000;1340
246.063;1330
246.125;1335
246.188;1340
246.250;1342
246.313;1340
246.375;1340
246.438;1335
246.500;1328
246.563;1342
246.625;1337
246.688;1328
246.750;1330
246.813;1333
246.875;1335
246.938;1333
247.000;1342
247.063;1347
247.125;1347
247.188;1345
247.250;1340
247.313;1347
247.375;1342
247.438;1335
247.500;1342
247.563;1345
247.625;1340
247.688;1340
247.750;1333
247.813;1340
247.875;1340
247.938;1340
248.000;1342
248.063;1340
248.125;1340
248.188;1340
248.250;1337
248.313;1345
248.375;1342
248.438;1340
248.500;1333
248.563;1337
248.625;1352
248.688;1345
248.750;1350
248.813;1342
248.875;1340
248.938;1347
249.000;1347
249.063;1350
249.125;1350
249.188;1347
249.250;1354
249.313;1354
249.375;1357
249.438;1342
249.500;1345
249.563;1357
249.625;1352
249.688;1345
249.750;1350
249.813;1347
249.875;1347
249.938;1345
250.000;1350
250.063;1350
250.125;1342
250.188;1350
250.250;1359
250.313;1340
250.375;1352
250.438;1352
250.500;1357
250.563;1350
250.625;1347
250.688;1345
250.750;1357
250.813;1354
250.875;1352
250.938;1347
251.000;1347
251.063;1357
251.125;1347
251.188;1352
251.250;1362
251.313;1352
251.375;1352
251.438;1354
251.500;1354
251.563;1354
251.625;1352
251.688;1354
251.750;1350
251.813;1347
251.875;1357
251.938;1362
252.000;1350
252.063;1352
252.125;1354
252.188;1354
252.250;1354
252.313;1345
252.375;1352
252.438;1352
252.500;1357
252.563;1357
252.625;1345
252.688;1357
252.750;1362
252.813;1354
252.875;1354
252.938;1342
253.000;1347
253.063;1354
253.125;1347
253.188;1359
253.250;1350
253.313;1352
253.375;1357
253.438;1350
253.500;1357
253.563;1352
253.625;1354
253.688;1354
253.750;1359
253.813;1350
253.875;1352
253.938;1352
254.000;1354
254.063;1350
254.125;1352
254.188;1352
254.250;1350
254.313;1350
254.375;1350
254.438;1362
254.500;1352
254.563;1347
254.625;1347
254.688;1352
254.750;1354
254.813;1350
254.875;1350
254.938;1357
255.000;1357
255.063;1352
255.125;1345
255.188;1357
255.250;1362
255.313;1357
255.375;1347
255.438;1345
255.500;1347
255.563;1352
255.625;1347
255.688;1347
255.750;1350
255.813;1352
255.875;1340
255.938;1350
256.000;1347
256.063;1350
256.125;1345
256.188;1337
256.250;1352
256.313;1347
256.375;1345
256.438;1340
256.500;1347
256.563;1347
256.625;1342
256.688;1347
256.750;1342
256.813;1340
256.875;1345
256.938;1342
257.000;1335
257.063;1347
257.125;1345
257.188;1342
257.250;1347
257.313;1352
257.375;1335
257.438;1350
257.500;1342
257.563;1335
257.625;1347
257.688;1345
257.750;1347
257.813;1350
257.875;1347
257.938;1347
258.000;1342
258.063;1340
258.125;1350
258.188;1337
258.250;1333
258.313;1347
258.375;1350
258.438;1347
258.500;1337
258.563;1347
258.625;1347
258.688;1342
258.750;1345
258.813;1333
258.875;1350
258.938;1342
259.000;1352
259.063;1350
259.125;1345
259.188;1354
259.250;1337
259.313;1342
259.375;1357
259.438;1350
259.500;1347
259.563;1340
259.625;1347
259.688;1345
259.750;1359
259.813;1347
259.875;1345
259.938;1345
260.000;1347
260.063;1345
260.125;1345
260.188;1347
260.250;1345
260.313;1340
260.375;1345
260.438;1345
260.500;1350
260.563;1357
260.625;1345
260.688;1352
260.750;1362
260.813;1350
260.875;1335
260.938;1347
261.000;1340
261.063;1342
261.125;1347
261.188;1337
261.250;1352
261.313;1350
261.375;1362
261.438;1347
261.500;1362
261.563;1347
261.625;1350
261.688;1345
261.750;1354
261.813;1357
261.875;1340
261.938;1342
262.000;1362
262.063;1357
262.125;1357
262.188;1350
262.250;1350
262.313;1359
262.375;1357
262.438;1350
262.500;1354
262.563;1362
262.625;1359
262.688;1362
262.750;1354
262.813;1357
262.875;1357
262.938;1354
263.000;1352
263.063;1350
263.125;1354
263.188;1342
263.250;1352
263.313;1359
263.375;1357
263.438;1354
263.500;1350
263.563;1354
263.625;1364
263.688;1352
263.750;1347
263.813;1367
263.875;1357
263.938;1369
264.000;1359
264.063;1367
264.125;1357
264.188;1354
264.250;1357
264.313;1354
264.375;1352
264.438;1354
264.500;1367
264.563;1362
264.625;1362
264.688;1367
264.750;1357
264.813;1359
264.875;1354
264.938;1357
265.000;1350
265.063;1357
265.125;1352
265.188;1352
265.250;1354
265.313;1352
265.375;1350
265.438;1352
265.500;1359
265.563;1362
265.625;1357
265.688;1352
265.750;1359
265.813;1357
265.875;1352
265.938;1359
266.000;1352
266.063;1359
266.125;1357
266.188;1357
266.250;1357
266.313;1350
266.375;1350
266.438;1357
266.500;1357
266.563;1357
266.625;1345
266.688;1359
266.750;1352
266.813;1350
266.875;1352
266.938;1354
267.000;1362
267.063;1352
267.125;1357
267.188;1347
267.250;1357
267.313;1354
267.375;1350
267.438;1354
267.500;1354
267.563;1347
267.625;1350
267.688;1354
267.750;1352
267.813;1352
267.875;1345
267.938;1352
268.000;1350
268.063;1352
268.125;1347
268.188;1354
268.250;1347
268.313;1340
268.375;1350
268.438;1345
268.500;1362
268.563;1347
268.625;1357
268.688;1350
268.750;1350
268.813;1352
268.875;1354
268.938;1352
269.000;1347
269.063;1347
269.125;1350
269.188;1340
269.250;1354
269.313;1357
269.375;1357
269.438;1345
269.500;1357
269.563;1350
269.625;1350
269.688;1347
269.750;1345
269.813;1357
269.875;1347
269.938;1342
270.000;1354
270.063;1354
270.125;1347
270.188;1359
270.250;1350
270.313;1354
270.375;1354
270.438;1357
270.500;1350
270.563;1362
270.625;1352
270.688;1350
270.750;1354
270.813;1357
270.875;1350
270.938;1357
271.000;1350
271.063;1350
271.125;1350
271.188;1345
271.250;1352
271.313;1352
271.375;1345
271.438;1352
271.500;1352
271.563;1357
271.625;1352
271.688;1357
271.750;1352
271.813;1357
271.875;1347
271.938;1354
272.000;1359
272.063;1352
272.125;1362
272.188;1357
272.250;1350
272.313;1352
272.375;1359
272.438;1362
272.500;1354
272.563;1359
272.625;1359
272.688;1352
272.750;1359
272.813;1352
272.875;1354
272.938;1359
273.000;1345
273.063;1354
273.125;1350
273.188;1357
273.250;1352
273.313;1362
273.375;1357
273.438;1367
273.500;1354
273.563;1359
273.625;1362
273.688;1364
273.750;1354
273.813;1354
273.875;1357
273.938;1367
274.000;1354
274.063;1352
274.125;1359
274.188;1359
274.250;1362
274.313;1362
274.375;1367
274.438;1364
274.500;1357
274.563;1367
274.625;1374
274.688;1364
274.750;1362
274.813;1367
274.875;1364
274.938;1362
275.000;1359
275.063;1367
275.125;1364
275.188;1372
275.250;1376
275.313;1367
275.375;1372
275.438;1369
275.500;1352
275.563;1362
275.625;1364
275.688;1357
275.750;1376
275.813;1357
275.875;1359
275.938;1362
276.000;1364
276.063;1379
276.125;1357
276.188;1381
276.250;1364
276.313;1369
276.375;1374
276.438;1367
276.500;1367
276.563;1362
276.625;1367
276.688;1372
276.750;1367
276.813;1364
276.875;1379
276.938;1369
277.000;1376
277.063;1369
277.125;1364
277.188;1364
277.250;1374
277.313;1369
277.375;1376
277.438;1374
277.500;1362
277.563;1369
277.625;1354
277.688;1372
277.750;1364
277.813;1369
277.875;1367
277.938;1367
278.000;1359
278.063;1359
278.125;1364
278.188;1369
278.250;1359
278.313;1367
278.375;1369
278.438;1364
278.500;1367
278.563;1362
278.625;1369
278.688;1374
278.750;1367
278.813;1367
278.875;1359
278.938;1372
279.000;1359
279.063;1364
279.125;1362
279.188;1369
279.250;1376
279.313;1376
279.375;1364
279.438;1357
279.500;1359
279.563;1364
279.625;1364
279.688;1359
279.750;1357
279.813;1362
279.875;1364
279.938;1362
280.000;1359
280.063;1354
280.125;1369
280.188;1364
280.250;1357
280.313;1362
280.375;1362
280.438;1367
280.500;1362
280.563;1369
280.625;1369
280.688;1359
280.750;1367
280.813;1369
280.875;1372
280.938;1367
281.000;1369
281.063;1364
281.125;1359
281.188;1357
281.250;1362
281.313;1359
281.375;1364
281.438;1367
281.500;1364
281.563;1369
281.625;1357
281.688;1369
281.750;1359
281.813;1367
281.875;1362
281.938;1362
282.000;1362
282.063;1347
282.125;1362
282.188;1357
282.250;1350
282.313;1362
282.375;1359
282.438;1367
282.500;1354
282.563;1359
282.625;1364
282.688;1357
282.750;1362
282.813;1362
282.875;1369
282.938;1362
283.000;1369
283.063;1369
283.125;1359
283.188;1362
283.250;1367
283.313;1359
283.375;1359
283.438;1367
283.500;1374
283.563;1374
283.625;1364
283.688;1354
283.750;1369
283.813;1362
283.875;1359
283.938;1367
284.000;1364
284.063;1362
284.125;1367
284.188;1372
284.250;1372
284.313;1374
284.375;1347
284.438;1369
284.500;1362
284.563;1364
284.625;1367
284.688;1372
284.750;1369
284.813;1354
284.875;1367
284.938;1367
285.000;1362
285.063;1362
285.125;1367
285.188;1362
285.250;1369
285.313;1372
285.375;1362
285.438;1367
285.500;1369
285.563;1374
285.625;1376
285.688;1362
285.750;1367
285.813;1357
285.875;1372
285.938;1362
286.000;1362
286.063;1364
286.125;1372
286.188;1369
286.250;1364
286.313;1372
286.375;1372
286.438;1364
286.500;1367
286.563;1362
286.625;1374
286.688;1372
286.750;1369
286.813;1374
286.875;1367
286.938;1369
287.000;1376
287.063;1374
287.125;1372
287.188;1381
287.250;1376
287.313;1369
287.375;1374
287.438;1372
287.500;1374
287.563;1374
287.625;1374
287.688;1364
287.750;1374
287.813;1369
287.875;1376
287.938;1367
288.000;1369
288.063;1367
288.125;1372
288.188;1372
288.250;1372
288.313;1374
288.375;1374
288.438;1372
288.500;1374
288.563;1362
288.625;1376
288.688;1374
288.750;1381
288.813;1372
288.875;1379
288.938;1372
289.000;1376
289.063;1369
289.125;1381
289.188;1376
289.250;1374
289.313;1372
289.375;1379
289.438;1376
289.500;1379
289.563;1374
289.625;1379
289.688;1376
289.750;1381
289.813;1374
289.875;1384
289.938;1367
290.000;1369
290.063;1372
290.125;1367
290.188;1369
290.250;1372
290.313;1374
290.375;1374
290.438;1367
290.500;1381
290.563;1379
290.625;1372
290.688;1364
290.750;1376
290.813;1374
290.875;1374
290.938;1376
291.000;1362
291.063;1369
291.125;1372
291.188;1364
291.250;1364
291.313;1369
291.375;1367
291.438;1372
291.500;1374
291.563;1381
291.625;1369
291.688;1372
291.750;1374
291.813;1374
291.875;1379
291.938;1379
292.000;1369
292.063;1374
292.125;1381
292.188;1376
292.250;1376
292.313;1369
292.375;1372
292.438;1369
292.500;1376
292.563;1374
292.625;1372
292.688;1372
292.750;1372
292.813;1374
292.875;1379
292.938;1374
293.000;1369
293.063;1381
293.125;1372
293.188;1369
293.250;1381
293.313;1379
293.375;1372
293.438;1374
293.500;1379
293.563;1364
293.625;1372
293.688;1379
293.750;1376
293.813;1379
293.875;1376
293.938;1364
294.000;1369
294.063;1364
294.125;1369
294.188;1369
294.250;1367
294.313;1372
294.375;1364
294.438;1367
294.500;1367
294.563;1379
294.625;1372
294.688;1362
294.750;1376
294.813;1367
294.875;1372
294.938;1367
295.000;1369
295.063;1379
295.125;1376
295.188;1376
295.250;1369
295.313;1376
295.375;1372
295.438;1372
295.500;1367
295.563;1372
295.625;1374
295.688;1376
295.750;1374
295.813;1364
295.875;1369
295.938;1376
296.000;1364
296.063;1374
296.125;1367
296.188;1374
296.250;1374
296.313;1376
296.375;1372
296.438;1389
296.500;1372
296.563;1381
296.625;1379
296.688;1376
296.750;1376
296.813;1379
296.875;1379
296.938;1379
297.000;1372
297.063;1376
297.125;1376
297.188;1379
297.250;1379
297.313;1374
297.375;1369
297.438;1381
297.500;1384
297.563;1379
297.625;1374
297.688;1379
297.750;1389
297.813;1374
297.875;1389
297.938;1372
298.000;1379
298.063;1379
298.125;1379
298.188;1376
298.250;1374
298.313;1386
298.375;1379
298.438;1374
298.500;1374
298.563;1376
298.625;1374
298.688;1379
298.750;1381
298.813;1376
298.875;1386
298.938;1369
299.000;1367
299.063;1384
299.125;1384
299.188;1374
299.250;1374
299.313;1381
299.375;1379
299.438;1384
299.500;1379
299.563;1386
299.625;1386
299.688;1381
299.750;1386
299.813;1386
299.875;1384
299.938;1386
300.000;1376
300.063;1386
300.125;1381
300.188;1386
300.250;1389
300.313;1386
300.375;1381
300.438;1369
300.500;1389
300.563;1386
300.625;1384
300.688;1381
300.750;1381
300.813;1381
300.875;1381
300.938;1381
301.000;1376
301.063;1381
301.125;1381
301.188;1389
301.250;1376
301.313;1384
301.375;1376
301.438;1386
301.500;1379
301.563;1384
301.625;1374
301.688;1369
301.750;1374
301.813;1381
301.875;1381
301.938;1376
302.000;1386
302.063;1376
302.125;1359
302.188;1374
302.250;1381
302.313;1376
302.375;1379
302.438;1372
302.500;1362
302.563;1379
302.625;1376
302.688;1384
302.750;1381
302.813;1374
302.875;1369
302.938;1381
303.000;1381
303.063;1376
303.125;1384
303.188;1384
303.250;1384
303.313;1376
303.375;1381
303.438;1372
303.500;1374
303.563;1376
303.625;1374
303.688;1372
303.750;1379
303.813;1374
303.875;1372
303.938;1376
304.000;1374
304.063;1367
304.125;1374
304.188;1372
304.250;1381
304.313;1381
304.375;1372
304.438;1367
304.500;1364
304.563;1372
304.625;1369
304.688;1372
304.750;1374
304.813;1374
304.875;1367
304.938;1369
305.000;1379
305.063;1376
305.125;1369
305.188;1369
305.250;1376
305.313;1374
305.375;1372
305.438;1369
305.500;1372
305.563;1376
305.625;1376
305.688;1364
305.750;1374
305.813;1357
305.875;1362
305.938;1379
306.000;1376
306.063;1367
306.125;1376
306.188;1374
306.250;1367
306.313;1372
306.375;1381
306.438;1381
306.500;1381
306.563;1369
306.625;1374
306.688;1362
306.750;1372
306.813;1369
306.875;1369
306.938;1367
307.000;1376
307.063;1372
307.125;1364
307.188;1372
307.250;1369
307.313;1372
307.375;1372
307.438;1357
307.500;1379
307.563;1374
307.625;1372
307.688;1374
307.750;1384
307.813;1379
307.875;1376
307.938;1381
308.000;1374
308.063;1374
308.125;1376
308.188;1367
308.250;1376
308.313;1384
308.375;1374
308.438;1367
308.500;1381
308.563;1374
308.625;1379
308.688;1374
308.750;1381
308.813;1384
308.875;1381
308.938;1376
309.000;1381
309.063;1386
309.125;1379
309.188;1372
309.250;1376
309.313;1376
309.375;1379
309.438;1384
309.500;1374
309.563;1376
309.625;1379
309.688;1379
309.750;1379
309.813;1376
309.875;1376
309.938;1384
310.000;1381
310.063;1374
310.125;1379
310.188;1381
310.250;1391
310.313;1379
310.375;1374
310.438;1381
310.500;1376
310.563;1376
310.625;1384
310.688;1384
310.750;1384
310.813;1384
310.875;1379
310.938;1381
311.000;1369
311.063;1381
311.125;1389
311.188;1384
311.250;1379
311.313;1389
311.375;1381
311.438;1384
311.500;1386
311.563;1381
311.625;1389
311.688;1384
311.750;1381
311.813;1389
311.875;1386
311.938;1396
312.000;1376
312.063;1391
312.125;1384
312.188;1376
312.250;1384
312.313;1384
312.375;1379
312.438;1389
312.500;1384
312.563;1389
312.625;1391
312.688;1386
312.750;1386
312.813;1384
312.875;1376
312.938;1389
313.000;1389
313.063;1386
313.125;1394
313.188;1372
313.250;1384
313.313;1386
313.375;1374
313.438;1394
313.500;1386
313.563;1386
313.625;1374
313.688;1389
313.750;1389
313.813;1381
313.875;1396
313.938;1391
314.000;1386
314.063;1384
314.125;1379
314.188;1391
314.250;1391
314.313;1379
314.375;1389
314.438;1391
314.500;1389
314.563;1384
314.625;1384
314.688;1394
314.750;1394
314.813;1381
314.875;1389
314.938;1396
315.000;1384
315.063;1386
315.125;1389
315.188;1389
315.250;1391
315.313;1389
315.375;1391
315.438;1389
315.500;1384
315.563;1381
315.625;1384
315.688;1376
315.750;1386
315.813;1384
315.875;1381
315.938;1384
316.000;1384
316.063;1379
316.125;1389
316.188;1384
316.250;1381
316.313;1381
316.375;1389
316.438;1384
316.500;1384
316.563;1384
316.625;1381
316.688;1386
316.750;1376
316.813;1394
316.875;1381
316.938;1384
317.000;1384
317.063;1376
317.125;1384
317.188;1381
317.250;1381
317.313;1384
317.375;1374
317.438;1391
317.500;1381
317.563;1374
317.625;1376
317.688;1381
317.750;1381
317.813;1372
317.875;1376
317.938;1381
318.000;1379
318.063;1379
318.125;1386
318.188;1391
318.250;1384
318.313;1381
318.375;1379
318.438;1381
318.500;1381
318.563;1386
318.625;1374
318.688;1386
318.750;1376
318.813;1384
318.875;1372
318.938;1376
319.000;1379
319.063;1386
319.125;1372
319.188;1379
319.250;1376
319.313;1389
319.375;1379
319.438;1384
319.500;1384
319.563;1381
319.625;1386
319.688;1389
319.750;1381
319.813;1376
319.875;1376
319.938;1384
320.000;1376
320.063;1386
320.125;1384
320.188;1376
320.250;1386
320.313;1389
320.375;1376
320.438;1384
320.500;1384
320.563;1386
320.625;1379
320.688;1384
320.750;1389
320.813;1389
320.875;1384
320.938;1391
321.000;1386
321.063;1384
321.125;1386
321.188;1401
321.250;1381
321.313;1394
321.375;1384
321.438;1391
321.500;1389
321.563;1384
321.625;1379
321.688;1389
321.750;1379
321.813;1381
321.875;1389
321.938;1389
322.000;1384
322.063;1391
322.125;1381
322.188;1386
322.250;1391
322.313;1394
322.375;1391
322.438;1389
322.500;1376
322.563;1384
322.625;1391
322.688;1389
322.750;1386
322.813;1389
322.875;1386
322.938;1384
323.000;1379
323.063;1386
323.125;1396
323.188;1391
323.250;1396
323.313;1391
323.375;1391
323.438;1386
323.500;1381
323.563;1394
323.625;1381
323.688;1389
323.750;1384
323.813;1401
323.875;1386
323.938;1381
324.000;1386
324.063;1386
324.125;1384
324.188;1384
324.250;1389
324.313;1389
324.375;1386
324.438;1386
324.500;1391
324.563;1396
324.625;1389
324.688;1396
324.750;1389
324.813;1386
324.875;1386
324.938;1389
325.000;1391
325.063;1389
325.125;1396
325.188;1391
325.250;1381
325.313;1379
325.375;1391
325.438;1389
325.500;1389
325.563;1391
325.625;1396
325.688;1381
325.750;1381
325.813;1389
325.875;1386
325.938;1386
326.000;1389
326.063;1394
326.125;1389
326.188;1386
326.250;1389
326.313;1394
326.375;1389
326.438;1389
326.500;1394
326.563;1391
326.625;1386
326.688;1401
326.750;1386
326.813;1389
326.875;1391
326.938;1398
327.000;1389
327.063;1389
327.125;1394
327.188;1386
327.250;1391
327.313;1386
327.375;1386
327.438;1396
327.500;1396
327.563;1391
327.625;1389
327.688;1389
327.750;1381
327.813;1391
327.875;1389
327.938;1391
328.000;1389
328.063;1386
328.125;1396
328.188;1379
328.250;1384
328.313;1394
328.375;1381
328.438;1376
328.500;1381
328.563;1394
328.625;1384
328.688;1394
328.750;1391
328.813;1394
328.875;1391
328.938;1386
329.000;1384
329.063;1389
329.125;1384
329.188;1384
329.250;1374
329.313;1391
329.375;1389
329.438;1386
329.500;1389
329.563;1376
329.625;1381
329.688;1391
329.750;1391
329.813;1384
329.875;1386
329.938;1381
330.000;1386
330.063;1391
330.125;1391
330.188;1384
330.250;1386
330.313;1398
330.375;1396
330.438;1384
330.500;1384
330.563;1396
330.625;1389
330.688;1394
330.750;1386
330.813;1384
330.875;1389
330.938;1391
331.000;1386
331.063;1389
331.125;1386
331.188;1389
331.250;1381
331.313;1384
331.375;1389
331.438;1386
331.500;1389
331.563;1384
331.625;1381
331.688;1389
331.750;1386
331.813;1391
331.875;1398
331.938;1381
332.000;1394
332.063;1389
332.125;1389
332.188;1389
332.250;1396
332.313;1386
332.375;1389
332.438;1396
332.500;1394
332.563;1384
332.625;1386
332.688;1384
332.750;1384
332.813;1391
332.875;1391
332.938;1386
333.000;1394
333.063;1386
333.125;1386
333.188;1391
333.250;1386
333.313;1389
333.375;1381
333.438;1396
333.500;1394
333.563;1389
333.625;1394
333.688;1394
333.750;1403
333.813;1386
333.875;1386
333.938;1389
334.000;1391
334.063;1389
334.125;1396
334.188;1386
334.250;1389
334.313;1396
334.375;1403
334.438;1394
334.500;1391
334.563;1389
334.625;1391
334.688;1394
334.750;1389
334.813;1401
334.875;1389
334.938;1396
335.000;1391
335.063;1391
335.125;1396
335.188;1384
335.250;1391
335.313;1394
335.375;1396
335.438;1389
335.500;1391
335.563;1394
335.625;1391
335.688;1396
335.750;1396
335.813;1398
335.875;1398
335.938;1391
336.000;1386
336.063;1394
336.125;1398
336.188;1398
336.250;1386
336.313;1396
336.375;1394
336.438;1396
336.500;1384
336.563;1391
336.625;1398
336.688;1396
336.750;1391
336.813;1386
336.875;1398
336.938;1394
337.000;1389
337.063;1389
337.125;1391
337.188;1406
337.250;1396
337.313;1394
337.375;1386
337.438;1408
337.500;1389
337.563;1386
337.625;1398
337.688;1386
337.750;1396
337.813;1396
337.875;1403
337.938;1396
338.000;1401
338.063;1391
338.125;1394
338.188;1401
338.250;1396
338.313;1398
338.375;1394
338.438;1391
338.500;1398
338.563;1396
338.625;1394
338.688;1403
338.750;1391
338.813;1401
338.875;1386
338.938;1403
339.000;1396
339.063;1389
339.125;1396
339.188;1391
339.250;1394
339.313;1384
339.375;1394
339.438;1394
339.500;1394
339.563;1401
339.625;1391
339.688;1391
339.750;1384
339.813;1396
339.875;1376
339.938;1386
340.000;1391
340.063;1396
340.125;1384
340.188;1394
340.250;1389
340.313;1394
340.375;1381
340.438;1391
340.500;1391
340.563;1391
340.625;1391
340.688;1389
340.750;1389
340.813;1379
340.875;1384
340.938;1386
341.000;1389
341.063;1391
341.125;1394
341.188;1386
341.250;1386
341.313;1381
341.375;1389
341.438;1391
341.500;1386
341.563;1384
341.625;1384
341.688;1389
341.750;1391
341.813;1384
341.875;1381
341.938;1386
342.000;1396
342.063;1391
342.125;1384
342.188;1376
342.250;1396
342.313;1386
342.375;1391
342.438;1394
342.500;1396
342.563;1398
342.625;1386
342.688;1386
342.750;1401
342.813;1389
342.875;1389
342.938;1386
343.000;1386
343.063;1389
343.125;1386
343.188;1376
343.250;1391
343.313;1391
343.375;1386
343.438;1389
343.500;1384
343.563;1386
343.625;1384
343.688;1384
343.750;1381
343.813;1379
343.875;1384
343.938;1384
344.000;1376
344.063;1389
344.125;1386
344.188;1386
344.250;1391
344.313;1381
344.375;1391
344.438;1389
344.500;1386
344.563;1384
344.625;1374
344.688;1389
344.750;1394
344.813;1384
344.875;1374
344.938;1386
345.000;1391
345.063;1389
345.125;1386
345.188;1389
345.250;1391
345.313;1386
345.375;1391
345.438;1384
345.500;1391
345.563;1384
345.625;1376
345.688;1386
345.750;1381
345.813;1389
345.875;1374
345.938;1391
346.000;1394
346.063;1394
346.125;1394
346.188;1401
346.250;1381
346.313;1389
346.375;1386
346.438;1396
346.500;1391
346.563;1389
346.625;1394
346.688;1398
346.750;1396
346.813;1396
346.875;1401
346.938;1394
347.000;1396
347.063;1394
347.125;1394
347.188;1389
347.250;1389
347.313;1406
347.375;1396
347.438;1386
347.500;1391
347.563;1389
347.625;1394
347.688;1401
347.750;1396
347.813;1389
347.875;1394
347.938;1394
348.000;1394
348.063;1394
348.125;1394
348.188;1394
348.250;1396
348.313;1394
348.375;1394
348.438;1389
348.500;1398
348.563;1394
348.625;1391
348.688;1389
348.750;1386
348.813;1386
348.875;1394
348.938;1391
349.000;1396
349.063;1381
349.125;1398
349.188;1386
349.250;1386
349.313;1398
349.375;1396
349.438;1389
349.500;1396
349.563;1394
349.625;1394
349.688;1398
349.750;1396
349.813;1401
349.875;1389
349.938;1396
350.000;1398
350.063;1394
350.125;1394
350.188;1403
350.250;1398
350.313;1386
350.375;1394
350.438;1391
350.500;1391
350.563;1389
350.625;1391
350.688;1389
350.750;1389
350.813;1398
350.875;1389
350.938;1394
351.000;1398
351.063;1396
351.125;1391
351.188;1394
351.250;1389
351.313;1396
351.375;1401
351.438;1389
351.500;1386
351.563;1396
351.625;1386
351.688;1394
351.750;1396
351.813;1398
351.875;1391
351.938;1389
352.000;1389
352.063;1394
352.125;1384
352.188;1381
352.250;1394
352.313;1394
352.375;1391
352.438;1396
352.500;1389
352.563;1384
352.625;1391
352.688;1386
352.750;1389
352.813;1396
352.875;1391
352.938;1396
353.000;1389
353.063;1391
353.125;1394
353.188;1386
353.250;1389
353.313;1384
353.375;1386
353.438;1391
353.500;1391
353.563;1391
353.625;1386
353.688;1389
353.750;1389
353.813;1381
353.875;1391
353.938;1386
354.000;1391
354.063;1384
354.125;1376
354.188;1401
354.250;1391
354.313;1394
354.375;1386
354.438;1386
354.500;1389
354.563;1394
354.625;1374
354.688;1389
354.750;1379
354.813;1389
354.875;1384
354.938;1384
355.000;1384
355.063;1381
355.125;1396
355.188;1391
355.250;1389
355.313;1386
355.375;1381
355.438;1389
355.500;1391
355.563;1386
355.625;1386
355.688;1381
355.750;1379
355.813;1391
355.875;1394
355.938;1389
356.000;1394
356.063;1386
356.125;1384
356.188;1396
356.250;1394
356.313;1391
356.375;1389
356.438;1386
356.500;1391
356.563;1386
356.625;1391
356.688;1389
356.750;1389
356.813;1394
356.875;1396
356.938;1391
357.000;1389
357.063;1391
357.125;1384
357.188;1386
357.250;1389
357.313;1394
357.375;1386
357.438;1394
357.500;1386
357.563;1394
357.625;1394
357.688;1396
357.750;1391
357.813;1389
357.875;1391
357.938;1391
358.000;1386
358.063;1386
358.125;1394
358.188;1398
358.250;1391
358.313;1386
358.375;1408
358.438;1384
358.500;1394
358.563;1391
358.625;1391
358.688;1391
358.750;1384
358.813;1396
358.875;1389
358.938;1394
359.000;1386
359.063;1384
359.125;1396
359.188;1391
359.250;1394
359.313;1401
359.375;1403
359.438;1394
359.500;1398
359.563;1394
359.625;1374
359.688;1389
359.750;1403
359.813;1396
359.875;1396
359.938;1394
360.000;1386
360.063;1394
360.125;1398
360.188;1389
360.250;1384
360.313;1389
360.375;1391
360.438;1398
360.500;1394
360.563;1381
360.625;1396
360.688;1394
360.750;1384
360.813;1386
360.875;1396
360.938;1401
361.000;1394
361.063;1394
361.125;1391
361.188;1389
361.250;1389
361.313;1394
361.375;1391
361.438;1396
361.500;1381
361.563;1396
361.625;1394
361.688;1391
361.750;1384
361.813;1396
361.875;1391
361.938;1384
362.000;1396
362.063;1389
362.125;1403
362.188;1396
362.250;1389
362.313;1398
362.375;1396
362.438;1396
362.500;1389
362.563;1391
362.625;1379
362.688;1403
362.750;1381
362.813;1394
362.875;1396
362.938;1391
363.000;1394
363.063;1391
363.125;1389
363.188;1394
363.250;1389
363.313;1403
363.375;1391
363.438;1391
363.500;1386
363.563;1391
363.625;1394
363.688;1386
363.750;1396
363.813;1398
363.875;1389
363.938;1389
364.000;1391
364.063;1394
364.125;1394
364.188;1391
364.250;1391
364.313;1386
364.375;1379
364.438;1389
364.500;1391
364.563;1389
364.625;1386
364.688;1386
364.750;1386
364.813;1394
364.875;1398
364.938;1401
365.000;1398
365.063;1381
365.125;1386
365.188;1394
365.250;1391
365.313;1394
365.375;1389
365.438;1391
365.500;1394
365.563;1396
365.625;1381
365.688;1379
365.750;1391
365.813;1391
365.875;1401
365.938;1398
366.000;1381
366.063;1394
366.125;1391
366.188;1401
366.250;1389
366.313;1391
366.375;1391
366.438;1386
366.500;1386
366.563;1389
366.625;1396
366.688;1391
366.750;1389
366.813;1391
366.875;1398
366.938;1391
367.000;1381
367.063;1394
367.125;1386
367.188;1389
367.250;1389
367.313;1391
367.375;1394
367.438;1394
367.500;1386
367.563;1386
367.625;1386
367.688;1384
367.750;1396
367.813;1398
367.875;1394
367.938;1394
368.000;1396
368.063;1386
368.125;1386
368.188;1389
368.250;1394
368.313;1384
368.375;1394
368.438;1386
368.500;1386
368.563;1391
368.625;1386
368.688;1384
368.750;1394
368.813;1396
368.875;1389
368.938;1394
369.000;1389
369.063;1396
369.125;1386
369.188;1391
369.250;1389
369.313;1389
369.375;1396
369.438;1394
369.500;1389
369.563;1384
369.625;1394
369.688;1386
369.750;1386
369.813;1391
369.875;1384
369.938;1381
370.000;1394
370.063;1386
370.125;1389
370.188;1386
370.250;1389
370.313;1401
370.375;1398
370.438;1391
370.500;1389
370.563;1391
370.625;1394
370.688;1394
370.750;1394
370.813;1394
370.875;1398
370.938;1389
371.000;1396
371.063;1389
371.125;1394
371.188;1394
371.250;1381
371.313;1394
371.375;1389
371.438;1391
371.500;1381
371.563;1389
371.625;1398
371.688;1389
371.750;1389
371.813;1391
371.875;1391
371.938;1389
372.000;1396
372.063;1394
372.125;1396
372.188;1391
372.250;1394
372.313;1394
372.375;1389
372.438;1391
372.500;1389
372.563;1391
372.625;1394
372.688;1396
372.750;1401
372.813;1403
372.875;1394
372.938;1396
373.000;1396
373.063;1394
373.125;1394
373.188;1391
373.250;1389
373.313;1411
373.375;1391
373.438;1389
373.500;1391
373.563;1389
373.625;1398
373.688;1389
373.750;1391
373.813;1401
373.875;1389
373.938;1389
374.000;1386
374.063;1389
374.125;1401
374.188;1394
374.250;1391
374.313;1394
374.375;1401
374.438;1391
374.500;1386
374.563;1391
374.625;1396
374.688;1391
374.750;1394
374.813;1391
374.875;1396
374.938;1391
375.000;1389
375.063;1389
375.125;1386
375.188;1391
375.250;1391
375.313;1384
375.375;1398
375.438;1396
375.500;1386
375.563;1396
375.625;1401
375.688;1396
375.750;1384
375.813;1396
375.875;1401
375.938;1401
376.000;1394
376.063;1396
376.125;1384
376.188;1394
376.250;1391
376.313;1391
376.375;1394
376.438;1384
376.500;1396
376.563;1394
376.625;1386
376.688;1384
376.750;1396
376.813;1386
376.875;1384
376.938;1389
377.000;1396
377.063;1398
377.125;1391
377.188;1396
377.250;1394
377.313;1389
377.375;1396
377.438;1386
377.500;1386
377.563;1391
377.625;1389
377.688;1381
377.750;1391
377.813;1384
377.875;1391
377.938;1376
378.000;1389
378.063;1394
378.125;1394
378.188;1394
378.250;1391
378.313;1386
378.375;1391
378.438;1384
378.500;1389
378.563;1379
378.625;1394
378.688;1386
378.750;1384
378.813;1384
378.875;1396
378.938;1384
379.000;1391
379.063;1389
379.125;1394
379.188;1389
379.250;1394
379.313;1386
379.375;1401
379.438;1396
379.500;1386
379.563;1389
379.625;1389
379.688;1386
379.750;1394
379.813;1396
379.875;1389
379.938;1386
380.000;1398
380.063;1394
380.125;1389
380.188;1381
380.250;1384
380.313;1394
380.375;1391
380.438;1386
380.500;1391
380.563;1391
380.625;1389
380.688;1394
380.750;1384
380.813;1401
380.875;1398
380.938;1391
381.000;1381
381.063;1386
381.125;1391
381.188;1389
381.250;1389
381.313;1384
381.375;1381
381.438;1386
381.500;1389
381.563;1389
381.625;1384
381.688;1381
381.750;1391
381.813;1389
381.875;1386
381.938;1381
382.000;1389
382.063;1381
382.125;1401
382.188;1394
382.250;1389
382.313;1386
382.375;1396
382.438;1398
382.500;1386
382.563;1394
382.625;1384
382.688;1394
382.750;1396
382.813;1386
382.875;1394
382.938;1396
383.000;1398
383.063;1391
383.125;1396
383.188;1391
383.250;1389
383.313;1389
383.375;1389
383.438;1398
383.500;1391
383.563;1391
383.625;1398
383.688;1401
383.750;1384
383.813;1391
383.875;1379
383.938;1389
384.000;1389
384.063;1394
384.125;1391
384.188;1389
384.250;1396
384.313;1379
384.375;1381
384.438;1381
384.500;1384
384.563;1396
384.625;1398
384.688;1396
384.750;1384
384.813;1398
384.875;1396
384.938;1396
385.000;1389
385.063;1396
385.125;1396
385.188;1398
385.250;1391
385.313;1396
385.375;1384
385.438;1381
385.500;1394
385.563;1394
385.625;1394
385.688;1396
385.750;1398
385.813;1396
385.875;1391
385.938;1389
386.000;1396
386.063;1396
386.125;1391
386.188;1389
386.250;1389
386.313;1394
386.375;1396
386.438;1394
386.500;1391
386.563;1391
386.625;1394
386.688;1386
386.750;1389
386.813;1389
386.875;1394
386.938;1398
387.000;1384
387.063;1394
387.125;1394
387.188;1396
387.250;1391
387.313;1396
387.375;1391
387.438;1379
387.500;1394
387.563;1398
387.625;1391
387.688;1394
387.750;1398
387.813;1396
387.875;1391
387.938;1403
388.000;1386
388.063;1394
388.125;1384
388.188;1386
388.250;1389
388.313;1394
388.375;1394
388.438;1386
388.500;1386
388.563;1389
388.625;1389
388.688;1384
388.750;1398
388.813;1398
388.875;1376
388.938;1389
389.000;1391
389.063;1398
389.125;1391
389.188;1394
389.250;1381
389.313;1396
389.375;1394
389.438;1394
389.500;1391
389.563;1381
389.625;1389
389.688;1389
389.750;1381
389.813;1398
389.875;1391
389.938;1394
390.000;1394
390.063;1396
390.125;1396
390.188;1396
390.250;1391
390.313;1384
390.375;1394
390.438;1398
390.500;1391
390.563;1394
390.625;1389
390.688;1384
390.750;1396
390.813;1384
390.875;1389
390.938;1394
391.000;1379
391.063;1386
391.125;1381
391.188;1384
391.250;1394
391.313;1391
391.375;1398
391.438;1386
391.500;1386
391.563;1398
391.625;1389
391.688;1391
391.750;1394
391.813;1386
391.875;1386
391.938;1386
392.000;1391
392.063;1398
392.125;1391
392.188;1389
392.250;1386
392.313;1384
392.375;1391
392.438;1391
392.500;1389
392.563;1391
392.625;1391
392.688;1389
392.750;1386
392.813;1389
392.875;1384
392.938;1391
393.000;1389
393.063;1396
393.125;1398
393.188;1386
393.250;1386
393.313;1386
393.375;1391
393.438;1401
393.500;1389
393.563;1386
393.625;1396
393.688;1389
393.750;1381
393.813;1384
393.875;1376
393.938;1394
394.000;1389
394.063;1391
394.125;1386
394.188;1391
394.250;1386
394.313;1389
394.375;1384
394.438;1389
394.500;1381
394.563;1394
394.625;1386
394.688;1396
394.750;1394
394.813;1384
394.875;1394
394.938;1394
395.000;1381
395.063;1389
395.125;1394
395.188;1381
395.250;1381
395.313;1386
395.375;1386
395.438;1381
395.500;1376
395.563;1381
395.625;1398
395.688;1394
395.750;1401
395.813;1384
395.875;1396
395.938;1396
396.000;1386
396.063;1386
396.125;1394
396.188;1398
396.250;1384
396.313;1391
396.375;1384
396.438;1396
396.500;1381
396.563;1394
396.625;1381
396.688;1398
396.750;1391
396.813;1398
396.875;1396
396.938;1386
397.000;1391
397.063;1391
397.125;1381
397.188;1389
397.250;1386
397.313;1391
397.375;1386
397.438;1384
397.500;1396
397.563;1386
397.625;1394
397.688;1396
397.750;1394
397.813;1391
397.875;1391
397.938;1396
398.000;1389
398.063;1389
398.125;1389
398.188;1381
398.250;1384
398.313;1384
398.375;1379
398.438;1386
398.500;1386
398.563;1386
398.625;1396
398.688;1398
398.750;1389
398.813;1381
398.875;1381
398.938;1386
399.000;1386
399.063;1394
399.125;1386
399.188;1384
399.250;1384
399.313;1391
399.375;1389
399.438;1379
399.500;1384
399.563;1389
399.625;1386
399.688;1389
399.750;1391
399.813;1386
399.875;1394
399.938;1389
400.000;1384
400.063;1398
400.125;1394
400.188;1396
400.250;1391
400.313;1381
400.375;1391
400.438;1394
400.500;1386
400.563;1384
400.625;1389
400.688;1386
400.750;1386
400.813;1398
400.875;1386
400.938;1389
401.000;1381
401.063;1386
401.125;1384
401.188;1386
401.250;1391
401.313;1389
401.375;1376
401.438;1389
401.500;1379
401.563;1391
401.625;1396
401.688;1386
401.750;1386
401.813;1389
401.875;1386
401.938;1384
402.000;1379
402.063;1381
402.125;1389
402.188;1386
402.250;1386
402.313;1384
402.375;1376
402.438;1386
402.500;1384
402.563;1389
402.625;1389
402.688;1384
402.750;1394
402.813;1381
402.875;1384
402.938;1381
403.000;1386
403.063;1381
403.125;1386
403.188;1389
403.250;1376
403.313;1376
403.375;1389
403.438;1386
403.500;1389
403.563;1391
403.625;1376
403.688;1381
403.750;1386
403.813;1391
403.875;1374
403.938;1379
404.000;1394
404.063;1379
404.125;1379
404.188;1386
404.250;1379
404.313;1376
404.375;1394
404.438;1384
404.500;1391
404.563;1391
404.625;1379
404.688;1379
404.750;1381
404.813;1379
404.875;1384
404.938;1379
405.000;1384
405.063;1381
405.125;1379
405.188;1376
405.250;1386
405.313;1384
405.375;1384
405.438;1391
405.500;1381
405.563;1391
405.625;1379
405.688;1389
405.750;1391
405.813;1384
405.875;1384
405.938;1386
406.000;1384
406.063;1379
406.125;1394
406.188;1376
406.250;1381
406.313;1379
406.375;1384
406.438;1376
406.500;1379
406.563;1394
406.625;1384
406.688;1379
406.750;1386
406.813;1391
406.875;1384
406.938;1381
407.000;1376
407.063;1389
407.125;1381
407.188;1389
407.250;1394
407.313;1391
407.375;1379
407.438;1384
407.500;1386
407.563;1372
407.625;1381
407.688;1384
407.750;1374
407.813;1381
407.875;1389
407.938;1384
408.000;1376
408.063;1396
408.125;1386
408.188;1381
408.250;1386
408.313;1384
408.375;1389
408.438;1391
408.500;1376
408.563;1384
408.625;1381
408.688;1381
408.750;1389
408.813;1376
408.875;1384
408.938;1372
409.000;1384
409.063;1386
409.125;1386
409.188;1381
409.250;1386
409.313;1384
409.375;1386
409.438;1381
409.500;1379
409.563;1376
409.625;1391
409.688;1389
409.750;1381
409.813;1389
409.875;1386
409.938;1384
410.000;1391
410.063;1376
410.125;1381
410.188;1381
410.250;1379
410.313;1391
410.375;1389
410.438;1374
410.500;1381
410.563;1389
410.625;1376
410.688;1386
410.750;1381
410.813;1381
410.875;1381
410.938;1379
411.000;1384
411.063;1384
411.125;1381
411.188;1389
411.250;1389
411.313;1381
411.375;1376
411.438;1381
411.500;1389
411.563;1389
411.625;1384
411.688;1381
411.750;1379
411.813;1386
411.875;1381
411.938;1381
412.000;1386
412.063;1384
412.125;1384
412.188;1374
412.250;1381
412.313;1384
412.375;1376
412.438;1384
412.500;1386
412.563;1374
412.625;1381
412.688;1381
412.750;1374
412.813;1384
412.875;1379
412.938;1374
413.000;1372
413.063;1391
413.125;1376
413.188;1372
413.250;1381
413.313;1379
413.375;1384
413.438;1391
413.500;1384
413.563;1379
413.625;1379
413.688;1384
413.750;1379
413.813;1386
413.875;1391
413.938;1381
414.000;1381
414.063;1379
414.125;1381
414.188;1376
414.250;1379
414.313;1376
414.375;1386
414.438;1384
414.500;1384
414.563;1381
414.625;1372
414.688;1376
414.750;1381
414.813;1379
414.875;1381
414.938;1379
415.000;1374
415.063;1381
415.125;1379
415.188;1376
415.250;1376
415.313;1386
415.375;1374
415.438;1376
415.500;1384
415.563;1381
415.625;1369
415.688;1379
415.750;1372
415.813;1384
415.875;1376
415.938;1384
416.000;1381
416.063;1389
416.125;1384
416.188;1386
416.250;1379
416.313;1376
416.375;1381
416.438;1384
416.500;1376
416.563;1376
416.625;1376
416.688;1376
416.750;1376
416.813;1372
416.875;1389
416.938;1384
417.000;1374
417.063;1376
417.125;1381
417.188;1376
417.250;1384
417.313;1386
417.375;1379
417.438;1372
417.500;1376
417.563;1384
417.625;1376
417.688;1379
417.750;1374
417.813;1376
417.875;1376
417.938;1384
418.000;1374
418.063;1374
418.125;1374
418.188;1379
418.250;1374
418.313;1372
418.375;1379
418.438;1376
418.500;1389
418.563;1379
418.625;1379
418.688;1379
418.750;1379
418.813;1379
418.875;1376
418.938;1381
419.000;1386
419.063;1379
419.125;1376
419.188;1374
419.250;1379
419.313;1369
419.375;1381
419.438;1386
419.500;1376
419.563;1372
419.625;1379
419.688;1369
419.750;1374
419.813;1379
419.875;1384
419.938;1376
420.000;1374
420.063;1389
420.125;1376
420.188;1372
420.250;1379
420.313;1381
420.375;1376
420.438;1374
420.500;1376
420.563;1374
420.625;1372
420.688;1379
420.750;1379
420.813;1381
420.875;1379
420.938;1381
421.000;1374
421.063;1374
421.125;1379
421.188;1374
421.250;1384
421.313;1379
421.375;1381
421.438;1379
421.500;1379
421.563;1369
421.625;1379
421.688;1376
421.750;1376
421.813;1394
421.875;1379
421.938;1379
422.000;1379
422.063;1379
422.125;1386
422.188;1376
422.250;1381
422.313;1386
422.375;1389
422.438;1381
422.500;1379
422.563;1384
422.625;1376
422.688;1374
422.750;1379
422.813;1384
422.875;1394
422.938;1367
423.000;1384
423.063;1369
423.125;1376
423.188;1384
423.250;1379
423.313;1374
423.375;1374
423.438;1381
423.500;1389
423.563;1379
423.625;1376
423.688;1374
423.750;1386
423.813;1381
423.875;1374
423.938;1386
424.000;1386
424.063;1384
424.125;1384
424.188;1384
424.250;1381
424.313;1374
424.375;1376
424.438;1372
424.500;1384
424.563;1379
424.625;1379
424.688;1384
424.750;1374
424.813;1379
424.875;1381
424.938;1386
425.000;1376
425.063;1374
425.125;1389
425.188;1379
425.250;1372
425.313;1376
425.375;1374
425.438;1376
425.500;1381
425.563;1372
425.625;1376
425.688;1374
425.750;1379
425.813;1381
425.875;1374
425.938;1379
426.000;1369
426.063;1376
426.125;1381
426.188;1379
426.250;1369
426.313;1376
426.375;1376
426.438;1374
426.500;1374
426.563;1386
426.625;1379
426.688;1374
426.750;1376
426.813;1369
426.875;1367
426.938;1379
427.000;1362
427.063;1384
427.125;1381
427.188;1376
427.250;1374
427.313;1379
427.375;1376
427.438;1379
427.500;1379
427.563;1379
427.625;1367
427.688;1376
427.750;1367
427.813;1367
427.875;1379
427.938;1376
428.000;1367
428.063;1374
428.125;1374
428.188;1369
428.250;1376
428.313;1372
428.375;1374
428.438;1374
428.500;1369
428.563;1376
428.625;1372
428.688;1374
428.750;1369
428.813;1376
428.875;1381
428.938;1381
429.000;1374
429.063;1389
429.125;1372
429.188;1369
429.250;1362
429.313;1364
429.375;1376
429.438;1369
429.500;1369
429.563;1376
429.625;1372
429.688;1379
429.750;1384
429.813;1374
429.875;1372
429.938;1376
430.000;1376
430.063;1372
430.125;1372
430.188;1367
430.250;1372
430.313;1374
430.375;1372
430.438;1379
430.500;1372
430.563;1369
430.625;1369
430.688;1357
430.750;1372
430.813;1376
430.875;1374
430.938;1372
431.000;1374
431.063;1367
431.125;1362
431.188;1376
431.250;1359
431.313;1367
431.375;1381
431.438;1376
431.500;1369
431.563;1372
431.625;1376
431.688;1372
431.750;1362
431.813;1372
431.875;1374
431.938;1372
432.000;1372
432.063;1372
432.125;1367
432.188;1369
432.250;1372
432.313;1372
432.375;1374
432.438;1369
432.500;1376
432.563;1372
432.625;1379
432.688;1364
432.750;1364
432.813;1379
432.875;1374
432.938;1367
433.000;1374
433.063;1367
433.125;1379
433.188;1376
433.250;1374
433.313;1374
433.375;1372
433.438;1367
433.500;1364
433.563;1374
433.625;1374
433.688;1367
433.750;1372
433.813;1369
433.875;1379
433.938;1384
434.000;1379
434.063;1367
434.125;1372
434.188;1372
434.250;1381
434.313;1379
434.375;1372
434.438;1374
434.500;1372
434.563;1374
434.625;1374
434.688;1364
434.750;1379
434.813;1384
434.875;1367
434.938;1369
435.000;1381
435.063;1372
435.125;1367
435.188;1374
435.250;1379
435.313;1369
435.375;1376
435.438;1374
435.500;1381
435.563;1369
435.625;1369
435.688;1367
435.750;1374
435.813;1374
435.875;1376
435.938;1367
436.000;1376
436.063;1372
436.125;1369
436.188;1369
436.250;1372
436.313;1372
436.375;1374
436.438;1359
436.500;1372
436.563;1376
436.625;1367
436.688;1376
436.750;1374
436.813;1376
436.875;1367
436.938;1364
437.000;1369
437.063;1379
437.125;1372
437.188;1372
437.250;1376
437.313;1362
437.375;1376
437.438;1372
437.500;1369
437.563;1376
437.625;1372
437.688;1367
437.750;1367
437.813;1367
437.875;1367
437.938;1372
438.000;1367
438.063;1372
438.125;1364
438.188;1372
438.250;1379
438.313;1369
438.375;1369
438.438;1374
438.500;1369
438.563;1367
438.625;1376
438.688;1374
438.750;1374
438.813;1364
438.875;1369
438.938;1376
439.000;1369
439.063;1372
439.125;1379
439.188;1367
439.250;1369
439.313;1374
439.375;1369
439.438;1374
439.500;1379
439.563;1364
439.625;1372
439.688;1369
439.750;1369
439.813;1372
439.875;1364
439.938;1376
440.000;1372
440.063;1369
440.125;1364
440.188;1364
440.250;1369
440.313;1376
440.375;1372
440.438;1357
440.500;1364
440.563;1369
440.625;1372
440.688;1362
440.750;1376
440.813;1379
440.875;1359
440.938;1376
441.000;1372
441.063;1364
441.125;1364
441.188;1362
441.250;1367
441.313;1364
441.375;1374
441.438;1367
441.500;1369
441.563;1367
441.625;1362
441.688;1359
441.750;1364
441.813;1379
441.875;1372
441.938;1364
442.000;1369
442.063;1374
442.125;1367
442.188;1374
442.250;1367
442.313;1369
442.375;1367
442.438;1369
442.500;1372
442.563;1362
442.625;1367
442.688;1372
442.750;1374
442.813;1367
442.875;1364
442.938;1364
443.000;1364
443.063;1367
443.125;1364
443.188;1369
443.250;1376
443.313;1364
443.375;1369
443.438;1364
443.500;1381
443.563;1381
443.625;1362
443.688;1379
443.750;1364
443.813;1367
443.875;1367
443.938;1364
444.000;1372
444.063;1372
444.125;1367
444.188;1367
444.250;1367
444.313;1374
444.375;1364
444.438;1364
444.500;1367
444.563;1364
444.625;1369
444.688;1367
444.750;1372
444.813;1374
444.875;1372
444.938;1372
445.000;1372
445.063;1376
445.125;1364
445.188;1364
445.250;1374
445.313;1364
445.375;1374
445.438;1362
445.500;1362
445.563;1367
445.625;1367
445.688;1374
445.750;1372
445.813;1364
445.875;1372
445.938;1364
446.000;1362
446.063;1362
446.125;1362
446.188;1367
446.250;1364
446.313;1372
446.375;1367
446.438;1372
446.500;1364
446.563;1369
446.625;1369
446.688;1369
446.750;1362
446.813;1367
446.875;1364
446.938;1376
447.000;1364
447.063;1374
447.125;1374
447.188;1369
447.250;1372
447.313;1362
447.375;1359
447.438;1359
447.500;1362
447.563;1354
447.625;1372
447.688;1369
447.750;1354
447.813;1364
447.875;1359
447.938;1364
448.000;1369
448.063;1364
448.125;1369
448.188;1374
448.250;1367
448.313;1364
448.375;1367
448.438;1364
448.500;1364
448.563;1369
448.625;1367
448.688;1364
448.750;1362
448.813;1362
448.875;1362
448.938;1362
449.000;1367
449.063;1364
449.125;1367
449.188;1364
449.250;1369
449.313;1369
449.375;1357
449.438;1362
449.500;1367
449.563;1369
449.625;1362
449.688;1369
449.750;1364
449.813;1364
449.875;1362
449.938;1357
450.000;1364
450.063;1374
450.125;1374
450.188;1364
450.250;1381
450.313;1401
450.375;1423
450.438;1442
450.500;1447
450.563;1459
450.625;1462
450.688;1450
450.750;1457
450.813;1467
450.875;1459
450.938;1462
451.000;1464
451.063;1472
451.125;1464
451.188;1462
451.250;1467
451.313;1462
451.375;1467
451.438;1467
451.500;1464
451.563;1467
451.625;1462
451.688;1469
451.750;1457
451.813;1459
451.875;1455
451.938;1457
452.000;1469
452.063;1459
452.125;1464
452.188;1457
452.250;1457
452.313;1462
452.375;1457
452.438;1462
452.500;1462
452.563;1464
452.625;1459
452.688;1442
452.750;1455
452.813;1462
452.875;1459
452.938;1457
453.000;1457
453.063;1459
453.125;1459
453.188;1457
453.250;1457
453.313;1462
453.375;1464
453.438;1457
453.500;1455
453.563;1462
453.625;1459
453.688;1455
453.750;1464
453.813;1452
453.875;1452
453.938;1459
454.000;1459
454.063;1457
454.125;1457
454.188;1452
454.250;1459
454.313;1452
454.375;1459
454.438;1452
454.500;1450
454.563;1455
454.625;1440
454.688;1452
454.750;1452
454.813;1452
454.875;1455
454.938;1457
455.000;1459
455.063;1459
455.125;1455
455.188;1452
455.250;1442
455.313;1457
455.375;1467
455.438;1452
455.500;1452
455.563;1455
455.625;1459
455.688;1459
455.750;1452
455.813;1462
455.875;1455
455.938;1459
456.000;1452
456.063;1442
456.125;1452
456.188;1455
456.250;1464
456.313;1459
456.375;1455
456.438;1452
456.500;1447
456.563;1455
456.625;1445
456.688;1452
456.750;1452
456.813;1459
456.875;1455
456.938;1455
457.000;1452
457.063;1459
457.125;1450
457.188;1452
457.250;1457
457.313;1462
457.375;1445
457.438;1452
457.500;1455
457.563;1459
457.625;1452
457.688;1457
457.750;1455
457.813;1462
457.875;1457
457.938;1452
458.000;1455
458.063;1442
458.125;1450
458.188;1447
458.250;1462
458.313;1452
458.375;1445
458.438;1452
458.500;1445
458.563;1452
458.625;1450
458.688;1445
458.750;1452
458.813;1452
458.875;1450
458.938;1452
459.000;1462
459.063;1452
459.125;1455
459.188;1445
459.250;1447
459.313;1455
459.375;1459
459.438;1452
459.500;1452
459.563;1457
459.625;1450
459.688;1467
459.750;1455
459.813;1455
459.875;1457
459.938;1457
460.000;1450
460.063;1457
460.125;1452
460.188;1452
460.250;1452
460.313;1459
460.375;1455
460.438;1459
460.500;1452
460.563;1452
460.625;1455
460.688;1455
460.750;1457
460.813;1462
460.875;1452
460.938;1459
461.000;1450
461.063;1442
461.125;1450
461.188;1457
461.250;1455
461.313;1452
461.375;1462
461.438;1450
461.500;1452
461.563;1462
461.625;1452
461.688;1457
461.750;1452
461.813;1452
461.875;1457
461.938;1447
462.000;1450
462.063;1457
462.125;1452
462.188;1455
462.250;1464
462.313;1452
462.375;1455
462.438;1442
462.500;1452
462.563;1452
462.625;1447
462.688;1445
462.750;1455
462.813;1459
462.875;1450
462.938;1450
463.000;1452
463.063;1457
463.125;1457
463.188;1462
463.250;1452
463.313;1457
463.375;1447
463.438;1452
463.500;1455
463.563;1440
463.625;1450
463.688;1452
463.750;1459
463.813;1452
463.875;1447
463.938;1455
464.000;1452
464.063;1447
464.125;1452
464.188;1455
464.250;1455
464.313;1455
464.375;1452
464.438;1457
464.500;1457
464.563;1447
464.625;1452
464.688;1457
464.750;1450
464.813;1452
464.875;1440
464.938;1442
465.000;1450
465.063;1450
465.125;1457
465.188;1455
465.250;1452
465.313;1462
465.375;1450
465.438;1455
465.500;1457
465.563;1455
465.625;1455
465.688;1452
465.750;1442
465.813;1452
465.875;1442
465.938;1452
466.000;1452
466.063;1445
466.125;1452
466.188;1447
466.250;1445
466.313;1457
466.375;1445
466.438;1450
466.500;1457
466.563;1447
466.625;1442
466.688;1445
466.750;1442
466.813;1450
466.875;1447
466.938;1452
467.000;1452
467.063;1455
467.125;1452
467.188;1447
467.250;1452
467.313;1457
467.375;1452
467.438;1452
467.500;1452
467.563;1445
467.625;1452
467.688;1452
467.750;1445
467.813;1450
467.875;1464
467.938;1455
468.000;1452
468.063;1452
468.125;1450
468.188;1459
468.250;1452
468.313;1450
468.375;1445
468.438;1447
468.500;1445
468.563;1447
468.625;1450
468.688;1455
468.750;1455
468.813;1445
468.875;1450
468.938;1452
469.000;1445
469.063;1452
469.125;1459
469.188;1455
469.250;1455
469.313;1435
469.375;1450
469.438;1450
469.500;1452
469.563;1445
469.625;1445
469.688;1450
469.750;1452
469.813;1447
469.875;1447
469.938;1447
470.000;1447
470.063;1452
470.125;1445
470.188;1455
470.250;1447
470.313;1450
470.375;1447
470.438;1445
470.500;1455
470.563;1455
470.625;1450
470.688;1455
470.750;1445
470.813;1455
470.875;1450
470.938;1457
471.000;1457
471.063;1440
471.125;1457
471.188;1462
471.250;1450
471.313;1442
471.375;1442
471.438;1452
471.500;1452
471.563;1452
471.625;1452
471.688;1455
471.750;1450
471.813;1447
471.875;1455
471.938;1447
472.000;1450
472.063;1450
472.125;1450
472.188;1455
472.250;1452
472.313;1459
472.375;1459
472.438;1459
472.500;1455
472.563;1462
472.625;1450
472.688;1452
472.750;1447
472.813;1437
472.875;1452
472.938;1457
473.000;1452
473.063;1447
473.125;1457
473.188;1450
473.250;1452
473.313;1457
473.375;1452
473.438;1452
473.500;1455
473.563;1452
473.625;1447
473.688;1455
473.750;1462
473.813;1467
473.875;1450
473.938;1440
474.000;1447
474.063;1447
474.125;1450
474.188;1452
474.250;1447
474.313;1445
474.375;1452
474.438;1457
474.500;1455
474.563;1445
474.625;1457
474.688;1452
474.750;1457
474.813;1447
474.875;1450
474.938;1437
475.000;1459
475.063;1442
475.125;1462
475.188;1455
475.250;1442
475.313;1457
475.375;1457
475.438;1450
475.500;1450
475.563;1445
475.625;1450
475.688;1450
475.750;1445
475.813;1459
475.875;1452
475.938;1452
476.000;1450
476.063;1447
476.125;1442
476.188;1452
476.250;1450
476.313;1445
476.375;1450
476.438;1440
476.500;1459
476.563;1452
476.625;1450
476.688;1447
476.750;1450
476.813;1452
476.875;1445
476.938;1447
477.000;1450
477.063;1452
477.125;1450
477.188;1447
477.250;1455
477.313;1450
477.375;1447
477.438;1447
477.500;1445
477.563;1447
477.625;1447
477.688;1447
477.750;1452
477.813;1445
477.875;1447
477.938;1445
478.000;1455
478.063;1452
478.125;1459
478.188;1445
478.250;1442
478.313;1445
478.375;1450
478.438;1435
478.500;1447
478.563;1440
478.625;1447
478.688;1447
478.750;1442
478.813;1452
478.875;1450
478.938;1447
479.000;1445
479.063;1445
479.125;1450
479.188;1447
479.250;1445
479.313;1450
479.375;1450
479.438;1447
479.500;1445
479.563;1442
479.625;1455
479.688;1450
479.750;1452
479.813;1450
479.875;1442
479.938;1442
480.000;1455
480.063;1450
480.125;1445
480.188;1455
480.250;1455
480.313;1450
480.375;1442
480.438;1450
480.500;1457
480.563;1447
480.625;1442
480.688;1445
480.750;1452
480.813;1445
480.875;1455
480.938;1452
481.000;1455
481.063;1447
481.125;1447
481.188;1455
481.250;1447
481.313;1455
481.375;1450
481.438;1447
481.500;1447
481.563;1450
481.625;1452
481.688;1452
481.750;1452
481.813;1447
481.875;1450
481.938;1442
482.000;1459
482.063;1457
482.125;1455
482.188;1445
482.250;1450
482.313;1445
482.375;1447
482.438;1445
482.500;1450
482.563;1462
482.625;1447
482.688;1455
482.750;1445
482.813;1450
482.875;1442
482.938;1447
483.000;1459
483.063;1445
483.125;1447
483.188;1452
483.250;1450
483.313;1445
483.375;1452
483.438;1450
483.500;1452
483.563;1450
483.625;1450
483.688;1445
483.750;1457
483.813;1452
483.875;1447
483.938;1447
484.000;1457
484.063;1455
484.125;1450
484.188;1447
484.250;1450
484.313;1447
484.375;1442
484.438;1445
484.500;1452
484.563;1450
484.625;1455
484.688;1447
484.750;1447
484.813;1437
484.875;1450
484.938;1450
485.000;1457
485.063;1442
485.125;1447
485.188;1455
485.250;1455
485.313;1445
485.375;1450
485.438;1442
485.500;1455
485.563;1442
485.625;1445
485.688;1442
485.750;1455
485.813;1452
485.875;1457
485.938;1450
486.000;1445
486.063;1442
486.125;1447
486.188;1440
486.250;1452
486.313;1455
486.375;1447
486.438;1445
486.500;1452
486.563;1455
486.625;1447
486.688;1442
486.750;1457
486.813;1447
486.875;1455
486.938;1447
487.000;1450
487.063;1450
487.125;1462
487.188;1442
487.250;1445
487.313;1445
487.375;1450
487.438;1452
487.500;1442
487.563;1437
487.625;1457
487.688;1452
487.750;1442
487.813;1450
487.875;1455
487.938;1447
488.000;1442
488.063;1440
488.125;1442
488.188;1447
488.250;1445
488.313;1452
488.375;1462
488.438;1452
488.500;1447
488.563;1447
488.625;1452
488.688;1445
488.750;1452
488.813;1450
488.875;1445
488.938;1440
489.000;1445
489.063;1445
489.125;1442
489.188;1445
489.250;1452
489.313;1457
489.375;1445
489.438;1447
489.500;1442
489.563;1447
489.625;1450
489.688;1445
489.750;1452
489.813;1445
489.875;1452
489.938;1452
490.000;1442
490.063;1455
490.125;1452
490.188;1450
490.250;1445
490.313;1442
490.375;1445
490.438;1455
490.500;1450
490.563;1447
490.625;1455
490.688;1452
490.750;1450
490.813;1442
490.875;1450
490.938;1455
491.000;1445
491.063;1452
491.125;1447
491.188;1442
491.250;1452
491.313;1447
491.375;1455
491.438;1455
491.500;1455
491.563;1452
491.625;1445
491.688;1440
491.750;1450
491.813;1452
491.875;1455
491.938;1445
492.000;1450
492.063;1455
492.125;1442
492.188;1442
492.250;1440
492.313;1459
492.375;1452
492.438;1447
492.500;1447
492.563;1455
492.625;1447
492.688;1450
492.750;1442
492.813;1442
492.875;1447
492.938;1455
493.000;1447
493.063;1445
493.125;1447
493.188;1445
493.250;1447
493.313;1452
493.375;1445
493.438;1447
493.500;1457
493.563;1447
493.625;1445
493.688;1450
493.750;1450
493.813;1442
493.875;1440
493.938;1452
494.000;1445
494.063;1452
494.125;1445
494.188;1452
494.250;1455
494.313;1447
494.375;1435
494.438;1445
494.500;1435
494.563;1450
494.625;1450
494.688;1445
494.750;1452
494.813;1442
494.875;1450
494.938;1447
495.000;1452
495.063;1440
495.125;1447
495.188;1452
495.250;1452
495.313;1457
495.375;1445
495.438;1445
495.500;1450
495.563;1452
495.625;1452
495.688;1445
495.750;1450
495.813;1445
495.875;1442
495.938;1447
496.000;1450
496.063;1452
496.125;1447
496.188;1445
496.250;1447
496.313;1457
496.375;1447
496.438;1452
496.500;1445
496.563;1435
496.625;1450
496.688;1450
496.750;1450
496.813;1452
496.875;1445
496.938;1455
497.000;1447
497.063;1452
497.125;1455
497.188;1447
497.250;1450
497.313;1452
497.375;1447
497.438;1447
497.500;1442
497.563;1442
497.625;1455
497.688;1442
497.750;1435
497.813;1452
497.875;1442
497.938;1450
498.000;1442
498.063;1445
498.125;1445
498.188;1452
498.250;1445
498.313;1450
498.375;1450
498.438;1447
498.500;1455
498.563;1445
498.625;1437
498.688;1447
498.750;1452
498.813;1452
498.875;1457
498.938;1450
499.000;1440
499.063;1447
499.125;1455
499.188;1437
499.250;1445
499.313;1450
499.375;1447
499.438;1442
499.500;1447
499.563;1442
499.625;1445
499.688;1447
499.750;1452
499.813;1445
499.875;1450
499.938;1447
500.000;1452
500.063;1445
500.125;1447
500.188;1450
500.250;1440
500.313;1457
500.375;1447
500.438;1440
500.500;1447
500.563;1440
500.625;1445
500.688;1442
500.750;1452
500.813;1445
500.875;1447
500.938;1447
501.000;1457
501.063;1445
501.125;1445
501.188;1452
501.250;1450
501.313;1447
501.375;1440
501.438;1437
501.500;1445
501.563;1452
501.625;1445
501.688;1445
501.750;1435
501.813;1442
501.875;1440
501.938;1442
502.000;1435
502.063;1440
502.125;1447
502.188;1450
502.250;1445
502.313;1447
502.375;1437
502.438;1445
502.500;1440
502.563;1447
502.625;1442
502.688;1440
502.750;1442
502.813;1442
502.875;1437
502.938;1452
503.000;1442
503.063;1445
503.125;1447
503.188;1442
503.250;1442
503.313;1447
503.375;1447
503.438;1450
503.500;1450
503.563;1447
503.625;1440
503.688;1440
503.750;1442
503.813;1442
503.875;1445
503.938;1445
504.000;1442
504.063;1437
504.125;1442
504.188;1440
504.250;1455
504.313;1447
504.375;1440
504.438;1437
504.500;1450
504.563;1450
504.625;1450
504.688;1450
504.750;1445
504.813;1455
504.875;1442
504.938;1450
505.000;1440
505.063;1435
505.125;1440
505.188;1437
505.250;1437
505.313;1442
505.375;1450
505.438;1440
505.500;1447
505.563;1442
505.625;1433
505.688;1450
505.750;1447
505.813;1447
505.875;1445
505.938;1435
506.000;1445
506.063;1447
506.125;1437
506.188;1442
506.250;1442
506.313;1445
506.375;1447
506.438;1450
506.500;1452
506.563;1445
506.625;1450
506.688;1455
506.750;1445
506.813;1440
506.875;1442
506.938;1447
507.000;1442
507.063;1447
507.125;1450
507.188;1447
507.250;1442
507.313;1437
507.375;1450
507.438;1437
507.500;1442
507.563;1442
507.625;1445
507.688;1442
507.750;1445
507.813;1445
507.875;1452
507.938;1457
508.000;1447
508.063;1445
508.125;1450
508.188;1445
508.250;1440
508.313;1447
508.375;1445
508.438;1442
508.500;1435
508.563;1447
508.625;1440
508.688;1440
508.750;1452
508.813;1445
508.875;1455
508.938;1442
509.000;1445
509.063;1452
509.125;1440
509.188;1447
509.250;1450
509.313;1445
509.375;1447
509.438;1433
509.500;1447
509.563;1447
509.625;1447
509.688;1435
509.750;1447
509.813;1450
509.875;1445
509.938;1447
510.000;1455
510.063;1442
510.125;1447
510.188;1435
510.250;1440
510.313;1452
510.375;1445
510.438;1445
510.500;1435
510.563;1435
510.625;1452
510.688;1445
510.750;1445
510.813;1440
510.875;1450
510.938;1442
511.000;1445
511.063;1440
511.125;1445
511.188;1442
511.250;1445
511.313;1455
511.375;1450
511.438;1437
511.500;1445
511.563;1445
511.625;1447
511.688;1450
511.750;1435
511.813;1445
511.875;1442
511.938;1442
512.000;1445
512.063;1442
512.125;1447
512.188;1452
512.250;1440
512.313;1437
512.375;1435
512.438;1440
512.500;1437
512.563;1440
512.625;1445
512.688;1442
512.750;1447
512.813;1442
512.875;1437
512.938;1440
513.000;1437
513.063;1440
513.125;1440
513.188;1442
513.250;1442
513.313;1450
513.375;1433
513.438;1437
513.500;1435
513.563;1440
513.625;1442
513.688;1442
513.750;1440
513.813;1433
513.875;1440
513.938;1447
514.000;1442
514.063;1442
514.125;1442
514.188;1447
514.250;1435
514.313;1435
514.375;1442
514.438;1435
514.500;1450
514.563;1442
514.625;1445
514.688;1447
514.750;1445
514.813;1440
514.875;1440
514.938;1440
515.000;1442
515.063;1433
515.125;1435
515.188;1447
515.250;1435
515.313;1442
515.375;1435
515.438;1437
515.500;1435
515.563;1445
515.625;1445
515.688;1433
515.750;1428
515.813;1442
515.875;1442
515.938;1435
516.000;1450
516.063;1437
516.125;1435
516.188;1437
516.250;1440
516.313;1457
516.375;1442
516.438;1440
516.500;1440
516.563;1437
516.625;1430
516.688;1445
516.750;1430
516.813;1445
516.875;1445
516.938;1447
517.000;1440
517.063;1445
517.125;1440
517.188;1442
517.250;1440
517.313;1440
517.375;1442
517.438;1440
517.500;1440
517.563;1437
517.625;1447
517.688;1437
517.750;1445
517.813;1435
517.875;1447
517.938;1440
518.000;1442
518.063;1445
518.125;1442
518.188;1445
518.250;1445
518.313;1435
518.375;1445
518.438;1442
518.500;1442
518.563;1447
518.625;1440
518.688;1447
518.750;1445
518.813;1435
518.875;1437
518.938;1437
519.000;1442
519.063;1433
519.125;1442
519.188;1442
519.250;1435
519.313;1445
519.375;1440
519.438;1437
519.500;1442
519.563;1447
519.625;1435
519.688;1440
519.750;1440
519.813;1442
519.875;1445
519.938;1437
520.000;1442
520.063;1450
520.125;1442
520.188;1445
520.250;1440
520.313;1440
520.375;1442
520.438;1440
520.500;1433
520.563;1437
520.625;1437
520.688;1440
520.750;1450
520.813;1442
520.875;1445
520.938;1437
521.000;1445
521.063;1450
521.125;1442
521.188;1442
521.250;1440
521.313;1445
521.375;1447
521.438;1440
521.500;1447
521.563;1442
521.625;1442
521.688;1437
521.750;1437
521.813;1452
521.875;1435
521.938;1440
522.000;1442
522.063;1435
522.125;1435
522.188;1437
522.250;1437
522.313;1437
522.375;1442
522.438;1437
522.500;1433
522.563;1447
522.625;1447
522.688;1442
522.750;1437
522.813;1447
522.875;1435
522.938;1437
523.000;1440
523.063;1442
523.125;1442
523.188;1450
523.250;1442
523.313;1440
523.375;1440
523.438;1442
523.500;1435
523.563;1435
523.625;1433
523.688;1440
523.750;1442
523.813;1437
523.875;1435
523.938;1452
524.000;1440
524.063;1442
524.125;1437
524.188;1435
524.250;1440
524.313;1440
524.375;1430
524.438;1437
524.500;1437
524.563;1442
524.625;1440
524.688;1442
524.750;1430
524.813;1435
524.875;1437
524.938;1445
525.000;1435
525.063;1437
525.125;1442
525.188;1445
525.250;1445
525.313;1433
525.375;1440
525.438;1435
525.500;1437
525.563;1440
525.625;1442
525.688;1425
525.750;1435
525.813;1435
525.875;1435
525.938;1440
526.000;1433
526.063;1433
526.125;1435
526.188;1430
526.250;1433
526.313;1437
526.375;1437
526.438;1435
526.500;1435
526.563;1440
526.625;1437
526.688;1442
526.750;1437
526.813;1445
526.875;1442
526.938;1435
527.000;1435
527.063;1433
527.125;1433
527.188;1442
527.250;1430
527.313;1433
527.375;1428
527.438;1433
527.500;1433
527.563;1435
527.625;1437
527.688;1440
527.750;1435
527.813;1433
527.875;1435
527.938;1437
528.000;1435
528.063;1435
528.125;1435
528.188;1430
528.250;1440
528.313;1435
528.375;1433
528.438;1437
528.500;1435
528.563;1435
528.625;1442
528.688;1440
528.750;1437
528.813;1442
528.875;1428
528.938;1440
529.000;1440
529.063;1433
529.125;1440
529.188;1437
529.250;1437
529.313;1437
529.375;1435
529.438;1437
529.500;1437
529.563;1433
529.625;1440
529.688;1430
529.750;1433
529.813;1440
529.875;1437
529.938;1425
530.000;1437
530.063;1440
530.125;1437
530.188;1435
530.250;1442
530.313;1440
530.375;1430
530.438;1428
530.500;1442
530.563;1437
530.625;1450
530.688;1435
530.750;1437
530.813;1440
530.875;1440
530.938;1440
531.000;1433
531.063;1433
531.125;1440
531.188;1435
531.250;1433
531.313;1442
531.375;1433
531.438;1437
531.500;1437
531.563;1447
531.625;1435
531.688;1435
531.750;1437
531.813;1445
531.875;1445
531.938;1437
532.000;1440
532.063;1440
532.125;1442
532.188;1430
532.250;1433
532.313;1435
532.375;1435
532.438;1433
532.500;1442
532.563;1445
532.625;1442
532.688;1440
532.750;1430
532.813;1433
532.875;1440
532.938;1435
533.000;1447
533.063;1440
533.125;1447
533.188;1433
533.250;1435
533.313;1440
533.375;1435
533.438;1440
533.500;1440
533.563;1442
533.625;1442
533.688;1437
533.750;1445
533.813;1442
533.875;1437
533.938;1435
534.000;1437
534.063;1435
534.125;1435
534.188;1433
534.250;1442
534.313;1435
534.375;1440
534.438;1435
534.500;1430
534.563;1428
534.625;1435
534.688;1430
534.750;1428
534.813;1440
534.875;1442
534.938;1442
535.000;1440
535.063;1442
535.125;1440
535.188;1433
535.250;1430
535.313;1445
535.375;1433
535.438;1445
535.500;1442
535.563;1445
535.625;1440
535.688;1437
535.750;1437
535.813;1433
535.875;1435
535.938;1430
536.000;1430
536.063;1445
536.125;1433
536.188;1428
536.250;1440
536.313;1437
536.375;1430
536.438;1437
536.500;1433
536.563;1437
536.625;1437
536.688;1425
536.750;1437
536.813;1437
536.875;1428
536.938;1437
537.000;1433
537.063;1425
537.125;1437
537.188;1437
537.250;1433
537.313;1437
537.375;1433
537.438;1433
537.500;1430
537.563;1433
537.625;1428
537.688;1428
537.750;1440
537.813;1428
537.875;1437
537.938;1428
538.000;1430
538.063;1440
538.125;1430
538.188;1433
538.250;1440
538.313;1435
538.375;1442
538.438;1433
538.500;1435
538.563;1428
538.625;1430
538.688;1437
538.750;1433
538.813;1435
538.875;1428
538.938;1433
539.000;1433
539.063;1435
539.125;1435
539.188;1428
539.250;1433
539.313;1428
539.375;1440
539.438;1430
539.500;1425
539.563;1440
539.625;1433
539.688;1433
539.750;1430
539.813;1435
539.875;1433
539.938;1437
540.000;1435
540.063;1433
540.125;1435
540.188;1428
540.250;1430
540.313;1433
540.375;1435
540.438;1440
540.500;1437
540.563;1428
540.625;1445
540.688;1423
540.750;1430
540.813;1423
540.875;1435
540.938;1428
541.000;1435
541.063;1435
541.125;1433
541.188;1435
541.250;1425
541.313;1430
541.375;1428
541.438;1428
541.500;1435
541.563;1435
541.625;1430
541.688;1435
541.750;1435
541.813;1433
541.875;1440
541.938;1425
542.000;1435
542.063;1433
542.125;1447
542.188;1435
542.250;1440
542.313;1433
542.375;1433
542.438;1430
542.500;1435
542.563;1440
542.625;1442
542.688;1440
542.750;1447
542.813;1433
542.875;1433
542.938;1420
543.000;1433
543.063;1442
543.125;1435
543.188;1440
543.250;1440
543.313;1435
543.375;1428
543.438;1435
543.500;1440
543.563;1430
543.625;1440
543.688;1440
543.750;1437
543.813;1435
543.875;1445
543.938;1433
544.000;1425
544.063;1430
544.125;1433
544.188;1430
544.250;1442
544.313;1428
544.375;1428
544.438;1433
544.500;1440
544.563;1433
544.625;1433
544.688;1433
544.750;1445
544.813;1433
544.875;1430
544.938;1423
545.000;1425
545.063;1425
545.125;1435
545.188;1433
545.250;1437
545.313;1442
545.375;1437
545.438;1433
545.500;1437
545.563;1435
545.625;1435
545.688;1433
545.750;1433
545.813;1440
545.875;1435
545.938;1437
546.000;1435
546.063;1435
546.125;1437
546.188;1445
546.250;1435
546.313;1447
546.375;1442
546.438;1435
546.500;1440
546.563;1435
546.625;1433
546.688;1437
546.750;1433
546.813;1437
546.875;1435
546.938;1430
547.000;1430
547.063;1430
547.125;1435
547.188;1430
547.250;1423
547.313;1430
547.375;1440
547.438;1430
547.500;1435
547.563;1425
547.625;1430
547.688;1440
547.750;1433
547.813;1435
547.875;1430
547.938;1428
548.000;1437
548.063;1433
548.125;1428
548.188;1437
548.250;1428
548.313;1433
548.375;1435
548.438;1437
548.500;1433
548.563;1437
548.625;1433
548.688;1433
548.750;1430
548.813;1428
548.875;1440
548.938;1435
549.000;1418
549.063;1430
549.125;1433
549.188;1430
549.250;1437
549.313;1435
549.375;1428
549.438;1433
549.500;1445
549.563;1428
549.625;1430
549.688;1442
549.750;1442
549.813;1428
549.875;1428
549.938;1435
550.000;1428
550.063;1440
550.125;1435
550.188;1428
550.250;1435
550.313;1423
550.375;1420
550.438;1430
550.500;1440
550.563;1428
550.625;1435
550.688;1420
550.750;1428
550.813;1433
550.875;1430
550.938;1435
551.000;1440
551.063;1428
551.125;1425
551.188;1428
551.250;1420
551.313;1440
551.375;1430
551.438;1425
551.500;1430
551.563;1437
551.625;1440
551.688;1437
551.750;1435
551.813;1433
551.875;1428
551.938;1433
552.000;1428
552.063;1433
552.125;1430
552.188;1437
552.250;1435
552.313;1440
552.375;1430
552.438;1433
552.500;1425
552.563;1433
552.625;1433
552.688;1433
552.750;1425
552.813;1437
552.875;1435
552.938;1425
553.000;1425
553.063;1435
553.125;1428
553.188;1423
553.250;1428
553.313;1430
553.375;1425
553.438;1433
553.500;1435
553.563;1442
553.625;1430
553.688;1430
553.750;1423
553.813;1430
553.875;1437
553.938;1437
554.000;1435
554.063;1435
554.125;1423
554.188;1423
554.250;1433
554.313;1435
554.375;1425
554.438;1435
554.500;1428
554.563;1430
554.625;1428
554.688;1435
554.750;1433
554.813;1430
554.875;1437
554.938;1437
555.000;1445
555.063;1437
555.125;1430
555.188;1440
555.250;1435
555.313;1437
555.375;1437
555.438;1442
555.500;1430
555.563;1435
555.625;1445
555.688;1435
555.750;1435
555.813;1437
555.875;1435
555.938;1442
556.000;1437
556.063;1440
556.125;1430
556.188;1437
556.250;1430
556.313;1435
556.375;1445
556.438;1440
556.500;1437
556.563;1435
556.625;1445
556.688;1440
556.750;1430
556.813;1437
556.875;1442
556.938;1435
557.000;1440
557.063;1435
557.125;1435
557.188;1433
557.250;1437
557.313;1428
557.375;1435
557.438;1428
557.500;1442
557.563;1440
557.625;1440
557.688;1430
557.750;1440
557.813;1442
557.875;1433
557.938;1437
558.000;1433
558.063;1433
558.125;1433
558.188;1435
558.250;1435
558.313;1435
558.375;1428
558.438;1437
558.500;1428
558.563;1435
558.625;1442
558.688;1435
558.750;1435
558.813;1435
558.875;1437
558.938;1440
559.000;1437
559.063;1433
559.125;1435
559.188;1433
559.250;1437
559.313;1425
559.375;1437
559.438;1437
559.500;1440
559.563;1435
559.625;1437
559.688;1435
559.750;1430
559.813;1435
559.875;1433
559.938;1437
560.000;1440
560.063;1445
560.125;1442
560.188;1445
560.250;1435
560.313;1437
560.375;1435
560.438;1437
560.500;1428
560.563;1425
560.625;1433
560.688;1428
560.750;1433
560.813;1433
560.875;1437
560.938;1435
561.000;1435
561.063;1440
561.125;1440
561.188;1442
561.250;1430
561.313;1428
561.375;1435
561.438;1437
561.500;1433
561.563;1445
561.625;1435
561.688;1435
561.750;1430
561.813;1442
561.875;1428
561.938;1430
562.000;1433
562.063;1430
562.125;1433
562.188;1430
562.250;1435
562.313;1435
562.375;1435
562.438;1445
562.500;1442
562.563;1437
562.625;1430
562.688;1430
562.750;1435
562.813;1435
562.875;1440
562.938;1437
563.000;1428
563.063;1437
563.125;1435
563.188;1433
563.250;1435
563.313;1440
563.375;1428
563.438;1433
563.500;1425
563.563;1442
563.625;1435
563.688;1437
563.750;1442
563.813;1440
563.875;1423
563.938;1430
564.000;1435
564.063;1433
564.125;1430
564.188;1442
564.250;1435
564.313;1430
564.375;1428
564.438;1435
564.500;1437
564.563;1430
564.625;1420
564.688;1430
564.750;1437
564.813;1430
564.875;1430
564.938;1437
565.000;1433
565.063;1437
565.125;1445
565.188;1437
565.250;1433
565.313;1442
565.375;1435
565.438;1442
565.500;1445
565.563;1437
565.625;1435
565.688;1433
565.750;1435
565.813;1430
565.875;1435
565.938;1430
566.000;1437
566.063;1437
566.125;1435
566.188;1440
566.250;1435
566.313;1437
566.375;1440
566.438;1437
566.500;1425
566.563;1445
566.625;1440
566.688;1433
566.750;1445
566.813;1430
566.875;1440
566.938;1430
567.000;1437
567.063;1435
567.125;1440
567.188;1435
567.250;1423
567.313;1435
567.375;1433
567.438;1437
567.500;1430
567.563;1440
567.625;1440
567.688;1437
567.750;1437
567.813;1437
567.875;1437
567.938;1437
568.000;1442
568.063;1440
568.125;1437
568.188;1440
568.250;1442
568.313;1433
568.375;1437
568.438;1442
568.500;1442
568.563;1440
568.625;1440
568.688;1433
568.750;1445
568.813;1433
568.875;1433
568.938;1433
569.000;1442
569.063;1435
569.125;1433
569.188;1433
569.250;1433
569.313;1433
569.375;1437
569.438;1442
569.500;1440
569.563;1435
569.625;1442
569.688;1442
569.750;1442
569.813;1433
569.875;1435
569.938;1430
570.000;1442
570.063;1435
570.125;1440
570.188;1437
570.250;1433
570.313;1437
570.375;1440
570.438;1437
570.500;1433
570.563;1445
570.625;1435
570.688;1440
570.750;1437
570.813;1435
570.875;1440
570.938;1430
571.000;1430
571.063;1433
571.125;1435
571.188;1430
571.250;1435
571.313;1442
571.375;1437
571.438;1435
571.500;1437
571.563;1437
571.625;1430
571.688;1430
571.750;1445
571.813;1428
571.875;1445
571.938;1445
572.000;1440
572.063;1437
572.125;1435
572.188;1428
572.250;1435
572.313;1433
572.375;1433
572.438;1428
572.500;1430
572.563;1442
572.625;1433
572.688;1440
572.750;1433
572.813;1433
572.875;1428
572.938;1445
573.000;1437
573.063;1428
573.125;1435
573.188;1430
573.250;1437
573.313;1442
573.375;1440
573.438;1442
573.500;1435
573.563;1430
573.625;1433
573.688;1433
573.750;1433
573.813;1440
573.875;1437
573.938;1440
574.000;1430
574.063;1428
574.125;1437
574.188;1430
574.250;1440
574.313;1435
574.375;1435
574.438;1433
574.500;1428
574.563;1440
574.625;1435
574.688;1433
574.750;1430
574.813;1440
574.875;1430
574.938;1428
575.000;1437
575.063;1447
575.125;1437
575.188;1435
575.250;1440
575.313;1430
575.375;1442
575.438;1435
575.500;1430
575.563;1445
575.625;1433
575.688;1425
575.750;1437
575.813;1437
575.875;1420
575.938;1430
576.000;1433
576.063;1433
576.125;1425
576.188;1437
576.250;1430
576.313;1440
576.375;1435
576.438;1428
576.500;1435
576.563;1435
576.625;1430
576.688;1442
576.750;1442
576.813;1440
576.875;1435
576.938;1437
577.000;1435
577.063;1440
577.125;1440
577.188;1437
577.250;1430
577.313;1435
577.375;1435
577.438;1442
577.500;1433
577.563;1440
577.625;1435
577.688;1440
577.750;1435
577.813;1437
577.875;1433
577.938;1435
578.000;1437
578.063;1440
578.125;1440
578.188;1435
578.250;1437
578.313;1433
578.375;1435
578.438;1445
578.500;1433
578.563;1440
578.625;1440
578.688;1437
578.750;1433
578.813;1437
578.875;1425
578.938;1437
579.000;1433
579.063;1437
579.125;1440
579.188;1437
579.250;1447
579.313;1428
579.375;1435
579.438;1433
579.500;1437
579.563;1435
579.625;1440
579.688;1433
579.750;1437
579.813;1442
579.875;1435
579.938;1435
580.000;1440
580.063;1440
580.125;1437
580.188;1447
580.250;1433
580.313;1433
580.375;1440
580.438;1435
580.500;1437
580.563;1437
580.625;1447
580.688;1430
580.750;1437
580.813;1433
580.875;1435
580.938;1435
581.000;1447
581.063;1437
581.125;1440
581.188;1447
581.250;1430
581.313;1445
581.375;1433
581.438;1452
581.500;1437
581.563;1437
581.625;1433
581.688;1447
581.750;1440
581.813;1442
581.875;1437
581.938;1445
582.000;1442
582.063;1435
582.125;1445
582.188;1440
582.250;1445
582.313;1447
582.375;1430
582.438;1440
582.500;1430
582.563;1447
582.625;1440
582.688;1440
582.750;1442
582.813;1437
582.875;1440
582.938;1430
583.000;1433
583.063;1445
583.125;1433
583.188;1442
583.250;1440
583.313;1435
583.375;1435
583.438;1433
583.500;1430
583.563;1435
583.625;1440
583.688;1437
583.750;1445
583.813;1445
583.875;1440
583.938;1440
584.000;1442
584.063;1437
584.125;1447
584.188;1437
584.250;1437
584.313;1437
584.375;1447
584.438;1442
584.500;1437
584.563;1437
584.625;1445
584.688;1435
584.750;1437
584.813;1435
584.875;1435
584.938;1445
585.000;1437
585.063;1435
585.125;1435
585.188;1440
585.250;1440
585.313;1440
585.375;1437
585.438;1435
585.500;1445
585.563;1437
585.625;1437
585.688;1433
585.750;1430
585.813;1428
585.875;1430
585.938;1433
586.000;1437
586.063;1437
586.125;1430
586.188;1447
586.250;1440
586.313;1433
586.375;1430
586.438;1435
586.500;1435
586.563;1437
586.625;1435
586.688;1437
586.750;1435
586.813;1435
586.875;1437
586.938;1442
587.000;1440
587.063;1440
587.125;1442
587.188;1442
587.250;1433
587.313;1442
587.375;1435
587.438;1435
587.500;1428
587.563;1428
587.625;1428
587.688;1435
587.750;1433
587.813;1445
587.875;1433
587.938;1435
588.000;1440
588.063;1445
588.125;1442
588.188;1437
588.250;1435
588.313;1430
588.375;1440
588.438;1433
588.500;1437
588.563;1437
588.625;1430
588.688;1437
588.750;1437
588.813;1442
588.875;1433
588.938;1435
589.000;1440
589.063;1437
589.125;1442
589.188;1428
589.250;1435
589.313;1430
589.375;1440
589.438;1437
589.500;1433
589.563;1442
589.625;1437
589.688;1442
589.750;1437
589.813;1433
589.875;1442
589.938;1445
590.000;1440
590.063;1437
590.125;1442
590.188;1435
590.250;1430
590.313;1440
590.375;1433
590.438;1430
590.500;1437
590.563;1440
590.625;1447
590.688;1440
590.750;1450
590.813;1442
590.875;1440
590.938;1445
591.000;1437
591.063;1430
591.125;1445
591.188;1437
591.250;1445
591.313;1435
591.375;1437
591.438;1440
591.500;1435
591.563;1437
591.625;1440
591.688;1442
591.750;1437
591.813;1425
591.875;1430
591.938;1440
592.000;1445
592.063;1447
592.125;1435
592.188;1445
592.250;1433
592.313;1435
592.375;1435
592.438;1435
592.500;1442
592.563;1435
592.625;1447
592.688;1437
592.750;1440
592.813;1437
592.875;1442
592.938;1440
593.000;1442
593.063;1442
593.125;1442
593.188;1442
593.250;1440
593.313;1433
593.375;1447
593.438;1442
593.500;1442
593.563;1440
593.625;1450
593.688;1435
593.750;1442
593.813;1435
593.875;1435
593.938;1442
594.000;1440
594.063;1440
594.125;1445
594.188;1440
594.250;1445
594.313;1440
594.375;1442
594.438;1440
594.500;1445
594.563;1437
594.625;1433
594.688;1445
594.750;1442
594.813;1433
594.875;1435
594.938;1437
595.000;1442
595.063;1437
595.125;1437
595.188;1445
595.250;1442
595.313;1440
595.375;1437
595.438;1445
595.500;1447
595.563;1447
595.625;1447
595.688;1433
595.750;1428
595.813;1442
595.875;1442
595.938;1440
596.000;1440
596.063;1433
596.125;1437
596.188;1442
596.250;1433
596.313;1440
596.375;1452
596.438;1428
596.500;1437
596.563;1445
596.625;1437
596.688;1437
596.750;1440
596.813;1435
596.875;1435
596.938;1440
597.000;1437
597.063;1442
597.125;1445
597.188;1440
597.250;1442
597.313;1445
597.375;1433
597.438;1442
597.500;1440
597.563;1433
597.625;1445
597.688;1435
597.750;1437
597.813;1435
597.875;1440
597.938;1445
598.000;1430
598.063;1455
598.125;1435
598.188;1425
598.250;1437
598.313;1442
598.375;1440
598.438;1440
598.500;1440
598.563;1430
598.625;1442
598.688;1455
598.750;1445
598.813;1433
598.875;1437
598.938;1440
599.000;1447
599.063;1440
599.125;1442
599.188;1435
599.250;1435
599.313;1428
599.375;1442
599.438;1440
599.500;1435
599.563;1442
599.625;1435
599.688;1435
599.750;1442
599.813;1437
599.875;1442
599.938;1437
600.000;1440
600.063;1440
600.125;1447
600.188;1435
600.250;1435
600.313;1437
600.375;1440
600.438;1442
600.500;1442
600.563;1442
600.625;1433
600.688;1437
600.750;1442
600.813;1445
600.875;1445
600.938;1440
601.000;1445
601.063;1437
601.125;1447
601.188;1442
601.250;1440
601.313;1442
601.375;1435
601.438;1442
601.500;1442
601.563;1442
601.625;1440
601.688;1440
601.750;1440
601.813;1437
601.875;1445
601.938;1440
602.000;1440
602.063;1437
602.125;1442
602.188;1435
602.250;1437
602.313;1430
602.375;1430
602.438;1442
602.500;1442
602.563;1445
602.625;1442
602.688;1445
602.750;1440
602.813;1450
602.875;1447
602.938;1437
603.000;1437
603.063;1442
603.125;1445
603.188;1442
603.250;1442
603.313;1430
603.375;1430
603.438;1440
603.500;1440
603.563;1442
603.625;1440
603.688;1428
603.750;1450
603.813;1445
603.875;1445
603.938;1442
604.000;1447
604.063;1423
604.125;1440
604.188;1440
604.250;1435
604.313;1450
604.375;1433
604.438;1437
604.500;1452
604.563;1442
604.625;1445
604.688;1442
604.750;1450
604.813;1437
604.875;1430
604.938;1433
605.000;1440
605.063;1435
605.125;1440
605.188;1440
605.250;1437
605.313;1445
605.375;1440
605.438;1430
605.500;1447
605.563;1440
605.625;1437
605.688;1440
605.750;1437
605.813;1435
605.875;1445
605.938;1442
606.000;1440
606.063;1425
606.125;1433
606.188;1440
606.250;1437
606.313;1442
606.375;1433
606.438;1440
606.500;1445
606.563;1435
606.625;1442
606.688;1437
606.750;1442
606.813;1442
606.875;1440
606.938;1437
607.000;1435
607.063;1440
607.125;1440
607.188;1440
607.250;1430
607.313;1440
607.375;1442
607.438;1440
607.500;1442
607.563;1435
607.625;1445
607.688;1442
607.750;1435
607.813;1437
607.875;1428
607.938;1440
608.000;1437
608.063;1440
608.125;1440
608.188;1437
608.250;1435
608.313;1437
608.375;1430
608.438;1437
608.500;1437
608.563;1433
608.625;1440
608.688;1437
608.750;1440
608.813;1433
608.875;1440
608.938;1435
609.000;1428
609.063;1430
609.125;1440
609.188;1435
609.250;1433
609.313;1435
609.375;1433
609.438;1442
609.500;1440
609.563;1435
609.625;1435
609.688;1437
609.750;1435
609.813;1440
609.875;1437
609.938;1437
610.000;1433
610.063;1437
610.125;1433
610.188;1433
610.250;1447
610.313;1435
610.375;1437
610.438;1435
610.500;1445
610.563;1425
610.625;1430
610.688;1430
610.750;1433
610.813;1433
610.875;1435
610.938;1437
611.000;1435
611.063;1437
611.125;1428
611.188;1435
611.250;1435
611.313;1430
611.375;1442
611.438;1440
611.500;1433
611.563;1428
611.625;1425
611.688;1430
611.750;1440
611.813;1435
611.875;1433
611.938;1430
612.000;1433
612.063;1437
612.125;1437
612.188;1440
612.250;1437
612.313;1442
612.375;1433
612.438;1435
612.500;1442
612.563;1433
612.625;1435
612.688;1433
612.750;1430
612.813;1435
612.875;1433
612.938;1440
613.000;1442
613.063;1435
613.125;1423
613.188;1428
613.250;1437
613.313;1435
613.375;1433
613.438;1440
613.500;1440
613.563;1428
613.625;1437
613.688;1430
613.750;1437
613.813;1435
613.875;1423
613.938;1430
614.000;1440
614.063;1440
614.125;1437
614.188;1445
614.250;1442
614.313;1428
614.375;1437
614.438;1442
614.500;1435
614.563;1430
614.625;1435
614.688;1437
614.750;1435
614.813;1435
614.875;1442
614.938;1440
615.000;1437
615.063;1440
615.125;1440
615.188;1428
615.250;1435
615.313;1433
615.375;1430
615.438;1440
615.500;1440
615.563;1442
615.625;1442
615.688;1435
615.750;1440
615.813;1445
615.875;1433
615.938;1433
616.000;1437
616.063;1430
616.125;1437
616.188;1437
616.250;1450
616.313;1433
616.375;1435
616.438;1447
616.500;1445
616.563;1440
616.625;1437
616.688;1433
616.750;1428
616.813;1428
616.875;1445
616.938;1435
617.000;1437
617.063;1440
617.125;1428
617.188;1433
617.250;1437
617.313;1435
617.375;1440
617.438;1437
617.500;1433
617.563;1425
617.625;1433
617.688;1433
617.750;1435
617.813;1435
617.875;1435
617.938;1428
618.000;1447
618.063;1442
618.125;1430
618.188;1435
618.250;1447
618.313;1445
618.375;1435
618.438;1440
618.500;1445
618.563;1437
618.625;1442
618.688;1440
618.750;1442
618.813;1440
618.875;1440
618.938;1437
619.000;1430
619.063;1440
619.125;1440
619.188;1435
619.250;1435
619.313;1440
619.375;1433
619.438;1437
619.500;1433
619.563;1435
619.625;1433
619.688;1433
619.750;1440
619.813;1437
619.875;1430
619.938;1437
620.000;1435
620.063;1437
620.125;1437
620.188;1435
620.250;1428
620.313;1430
620.375;1442
620.438;1437
620.500;1435
620.563;1430
620.625;1440
620.688;1430
620.750;1435
620.813;1425
620.875;1437
620.938;1440
621.000;1433
621.063;1433
621.125;1437
621.188;1435
621.250;1430
621.313;1435
621.375;1433
621.438;1437
621.500;1430
621.563;1435
621.625;1440
621.688;1420
621.750;1435
621.813;1433
621.875;1433
621.938;1437
622.000;1428
622.063;1430
622.125;1437
622.188;1430
622.250;1433
622.313;1428
622.375;1430
622.438;1428
622.500;1433
622.563;1430
622.625;1440
622.688;1428
622.750;1428
622.813;1435
622.875;1425
622.938;1423
623.000;1437
623.063;1428
623.125;1423
623.188;1440
623.250;1433
623.313;1435
623.375;1433
623.438;1428
623.500;1435
623.563;1433
623.625;1442
623.688;1425
623.750;1428
623.813;1435
623.875;1435
623.938;1425
624.000;1433
624.063;1425
624.125;1433
624.188;1428
624.250;1423
624.313;1437
624.375;1430
624.438;1435
624.500;1435
624.563;1430
624.625;1428
624.688;1428
624.750;1430
624.813;1425
624.875;1428
624.938;1425
625.000;1428
625.063;1428
625.125;1437
625.188;1437
625.250;1437
625.313;1433
625.375;1428
625.438;1425
625.500;1430
625.563;1440
625.625;1440
625.688;1423
625.750;1425
625.813;1437
625.875;1423
625.938;1433
626.000;1430
626.063;1430
626.125;1435
626.188;1433
626.250;1428
626.313;1425
626.375;1420
626.438;1430
626.500;1430
626.563;1435
626.625;1433
626.688;1425
626.750;1423
626.813;1428
626.875;1418
626.938;1440
627.000;1435
627.063;1428
627.125;1433
627.188;1433
627.250;1433
627.313;1440
627.375;1430
627.438;1428
627.500;1435
627.563;1440
627.625;1428
627.688;1430
627.750;1442
627.813;1435
627.875;1437
627.938;1425
628.000;1428
628.063;1433
628.125;1425
628.188;1425
628.250;1430
628.313;1433
628.375;1428
628.438;1428
628.500;1428
628.563;1435
628.625;1437
628.688;1433
628.750;1428
628.813;1433
628.875;1430
628.938;1433
629.000;1430
629.063;1445
629.125;1440
629.188;1420
629.250;1435
629.313;1425
629.375;1428
629.438;1428
629.500;1430
629.563;1428
629.625;1423
629.688;1433
629.750;1437
629.813;1435
629.875;1437
629.938;1433
630.000;1428
630.063;1442
630.125;1430
630.188;1433
630.250;1433
630.313;1433
630.375;1430
630.438;1435
630.500;1442
630.563;1437
630.625;1435
630.688;1435
630.750;1435
630.813;1433
630.875;1428
630.938;1425
631.000;1428
631.063;1428
631.125;1435
631.188;1428
631.250;1430
631.313;1437
631.375;1437
631.438;1435
631.500;1430
631.563;1430
631.625;1450
631.688;1430
631.750;1433
631.813;1428
631.875;1433
631.938;1435
632.000;1428
632.063;1435
632.125;1433
632.188;1435
632.250;1425
632.313;1428
632.375;1430
632.438;1437
632.500;1430
632.563;1433
632.625;1425
632.688;1425
632.750;1428
632.813;1430
632.875;1428
632.938;1425
633.000;1433
633.063;1430
633.125;1437
633.188;1428
633.250;1435
633.313;1435
633.375;1430
633.438;1430
633.500;1418
633.563;1428
633.625;1437
633.688;1425
633.750;1433
633.813;1433
633.875;1435
633.938;1433
634.000;1425
634.063;1430
634.125;1433
634.188;1423
634.250;1425
634.313;1428
634.375;1425
634.438;1435
634.500;1433
634.563;1418
634.625;1430
634.688;1433
634.750;1423
634.813;1425
634.875;1433
634.938;1430
635.000;1430
635.063;1428
635.125;1428
635.188;1420
635.250;1428
635.313;1430
635.375;1423
635.438;1423
635.500;1430
635.563;1425
635.625;1425
635.688;1425
635.750;1425
635.813;1430
635.875;1425
635.938;1430
636.000;1428
636.063;1423
636.125;1418
636.188;1433
636.250;1418
636.313;1433
636.375;1430
636.438;1433
636.500;1423
636.563;1435
636.625;1425
636.688;1433
636.750;1428
636.813;1430
636.875;1430
636.938;1418
637.000;1430
637.063;1423
637.125;1425
637.188;1428
637.250;1428
637.313;1428
637.375;1428
637.438;1428
637.500;1428
637.563;1418
637.625;1420
637.688;1423
637.750;1423
637.813;1440
637.875;1418
637.938;1430
638.000;1423
638.063;1433
638.125;1440
638.188;1433
638.250;1425
638.313;1425
638.375;1437
638.438;1428
638.500;1430
638.563;1435
638.625;1428
638.688;1428
638.750;1428
638.813;1430
638.875;1428
638.938;1430
639.000;1430
639.063;1430
639.125;1423
639.188;1423
639.250;1433
639.313;1430
639.375;1423
639.438;1428
639.500;1430
639.563;1423
639.625;1428
639.688;1430
639.750;1435
639.813;1423
639.875;1423
639.938;1433
640.000;1433
640.063;1420
640.125;1437
640.188;1428
640.250;1430
640.313;1425
640.375;1430
640.438;1437
640.500;1433
640.563;1425
640.625;1433
640.688;1420
640.750;1430
640.813;1433
640.875;1428
640.938;1433
641.000;1428
641.063;1423
641.125;1433
641.188;1420
641.250;1423
641.313;1435
641.375;1435
641.438;1418
641.500;1435
641.563;1428
641.625;1425
641.688;1428
641.750;1430
641.813;1433
641.875;1423
641.938;1428
642.000;1425
642.063;1428
642.125;1430
642.188;1430
642.250;1428
642.313;1425
642.375;1440
642.438;1433
642.500;1430
642.563;1428
642.625;1428
642.688;1428
642.750;1423
642.813;1430
642.875;1433
642.938;1435
643.000;1423
643.063;1423
643.125;1416
643.188;1425
643.250;1433
643.313;1423
643.375;1430
643.438;1425
643.500;1433
643.563;1425
643.625;1428
643.688;1425
643.750;1425
643.813;1420
643.875;1428
643.938;1423
644.000;1420
644.063;1428
644.125;1425
644.188;1428
644.250;1425
644.313;1418
644.375;1416
644.438;1430
644.500;1416
644.563;1423
644.625;1423
644.688;1430
644.750;1425
644.813;1433
644.875;1423
644.938;1423
645.000;1430
645.063;1423
645.125;1420
645.188;1425
645.250;1420
645.313;1425
645.375;1425
645.438;1423
645.500;1428
645.563;1430
645.625;1428
645.688;1420
645.750;1423
645.813;1416
645.875;1423
645.938;1416
646.000;1420
646.063;1423
646.125;1423
646.188;1418
646.250;1428
646.313;1423
646.375;1418
646.438;1425
646.500;1418
646.563;1423
646.625;1423
646.688;1428
646.750;1428
646.813;1420
646.875;1413
646.938;1430
647.000;1416
647.063;1425
647.125;1423
647.188;1416
647.250;1418
647.313;1425
647.375;1420
647.438;1420
647.500;1423
647.563;1420
647.625;1420
647.688;1425
647.750;1423
647.813;1416
647.875;1418
647.938;1420
648.000;1416
648.063;1408
648.125;1418
648.188;1425
648.250;1406
648.313;1425
648.375;1416
648.438;1428
648.500;1428
648.563;1425
648.625;1408
648.688;1420
648.750;1425
648.813;1425
648.875;1413
648.938;1416
649.000;1418
649.063;1416
649.125;1413
649.188;1418
649.250;1418
649.313;1418
649.375;1420
649.438;1423
649.500;1425
649.563;1418
649.625;1423
649.688;1418
649.750;1416
649.813;1413
649.875;1418
649.938;1420
650.000;1416
650.063;1420
650.125;1428
650.188;1420
650.250;1425
650.313;1420
650.375;1416
650.438;1408
650.500;1420
650.563;1420
650.625;1423
650.688;1416
650.750;1411
650.813;1428
650.875;1425
650.938;1418
651.000;1418
651.063;1416
651.125;1416
651.188;1423
651.250;1425
651.313;1423
651.375;1420
651.438;1413
651.500;1423
651.563;1423
651.625;1423
651.688;1423
651.750;1423
651.813;1420
651.875;1418
651.938;1416
652.000;1425
652.063;1420
652.125;1416
652.188;1423
652.250;1425
652.313;1418
652.375;1428
652.438;1420
652.500;1418
652.563;1413
652.625;1418
652.688;1423
652.750;1428
652.813;1420
652.875;1423
652.938;1416
653.000;1430
653.063;1418
653.125;1420
653.188;1416
653.250;1420
653.313;1418
653.375;1413
653.438;1420
653.500;1423
653.563;1425
653.625;1428
653.688;1423
653.750;1420
653.813;1428
653.875;1420
653.938;1411
654.000;1420
654.063;1423
654.125;1428
654.188;1425
654.250;1423
654.313;1413
654.375;1430
654.438;1435
654.500;1425
654.563;1425
654.625;1413
654.688;1416
654.750;1428
654.813;1425
654.875;1423
654.938;1423
655.000;1423
655.063;1425
655.125;1418
655.188;1413
655.250;1416
655.313;1420
655.375;1418
655.438;1420
655.500;1420
655.563;1423
655.625;1418
655.688;1420
655.750;1430
655.813;1418
655.875;1418
655.938;1416
656.000;1425
656.063;1418
656.125;1425
656.188;1425
656.250;1420
656.313;1413
656.375;1420
656.438;1416
656.500;1418
656.563;1418
656.625;1428
656.688;1411
656.750;1420
656.813;1423
656.875;1425
656.938;1420
657.000;1420
657.063;1430
657.125;1420
657.188;1413
657.250;1423
657.313;1420
657.375;1418
657.438;1418
657.500;1420
657.563;1413
657.625;1423
657.688;1413
657.750;1416
657.813;1416
657.875;1416
657.938;1416
658.000;1413
658.063;1413
658.125;1420
658.188;1413
658.250;1411
658.313;1425
658.375;1423
658.438;1413
658.500;1416
658.563;1411
658.625;1413
658.688;1423
658.750;1420
658.813;1416
658.875;1416
658.938;1408
659.000;1418
659.063;1420
659.125;1423
659.188;1423
659.250;1413
659.313;1420
659.375;1411
659.438;1418
659.500;1416
659.563;1420
659.625;1420
659.688;1408
659.750;1398
659.813;1418
659.875;1408
659.938;1413
660.000;1413
660.063;1416
660.125;1418
660.188;1416
660.250;1413
660.313;1420
660.375;1413
660.438;1420
660.500;1416
660.563;1411
660.625;1420
660.688;1408
660.750;1408
660.813;1423
660.875;1416
660.938;1423
661.000;1420
661.063;1416
661.125;1413
661.188;1403
661.250;1411
661.313;1416
661.375;1418
661.438;1420
661.500;1418
661.563;1416
661.625;1406
661.688;1418
661.750;1413
661.813;1420
661.875;1423
661.938;1416
662.000;1416
662.063;1416
662.125;1411
662.188;1423
662.250;1420
662.313;1420
662.375;1418
662.438;1406
662.500;1416
662.563;1416
662.625;1411
662.688;1418
662.750;1418
662.813;1423
662.875;1413
662.938;1411
663.000;1406
663.063;1413
663.125;1408
663.188;1416
663.250;1416
663.313;1418
663.375;1411
663.438;1408
663.500;1416
663.563;1425
663.625;1413
663.688;1416
663.750;1411
663.813;1408
663.875;1418
663.938;1413
664.000;1413
664.063;1408
664.125;1406
664.188;1406
664.250;1413
664.313;1413
664.375;1418
664.438;1423
664.500;1413
664.563;1420
664.625;1411
664.688;1411
664.750;1411
664.813;1413
664.875;1408
664.938;1413
665.000;1416
665.063;1420
665.125;1411
665.188;1406
665.250;1423
665.313;1425
665.375;1416
665.438;1425
665.500;1411
665.563;1416
665.625;1418
665.688;1411
665.750;1416
665.813;1413
665.875;1408
665.938;1418
666.000;1423
666.063;1413
666.125;1423
666.188;1413
666.250;1408
666.313;1408
666.375;1420
666.438;1416
666.500;1413
666.563;1418
666.625;1411
666.688;1411
666.750;1408
666.813;1408
666.875;1406
666.938;1413
667.000;1416
667.063;1418
667.125;1413
667.188;1406
667.250;1411
667.313;1420
667.375;1423
667.438;1406
667.500;1408
667.563;1413
667.625;1413
667.688;1428
667.750;1413
667.813;1416
667.875;1416
667.938;1406
668.000;1420
668.063;1413
668.125;1413
668.188;1413
668.250;1413
668.313;1413
668.375;1416
668.438;1411
668.500;1411
668.563;1403
668.625;1416
668.688;1416
668.750;1403
668.813;1403
668.875;1413
668.938;1411
669.000;1413
669.063;1408
669.125;1416
669.188;1411
669.250;1413
669.313;1413
669.375;1413
669.438;1408
669.500;1416
669.563;1406
669.625;1413
669.688;1403
669.750;1406
669.813;1406
669.875;1411
669.938;1408
670.000;1408
670.063;1408
670.125;1406
670.188;1413
670.250;1406
670.313;1406
670.375;1418
670.438;1406
670.500;1413
670.563;1420
670.625;1411
670.688;1420
670.750;1418
670.813;1411
670.875;1418
670.938;1416
671.000;1418
671.063;1408
671.125;1411
671.188;1408
671.250;1411
671.313;1406
671.375;1411
671.438;1406
671.500;1416
671.563;1420
671.625;1413
671.688;1411
671.750;1408
671.813;1416
671.875;1423
671.938;1413
672.000;1413
672.063;1411
672.125;1411
672.188;1411
672.250;1411
672.313;1411
672.375;1411
672.438;1406
672.500;1413
672.563;1408
672.625;1411
672.688;1413
672.750;1423
672.813;1418
672.875;1406
672.938;1411
673.000;1403
673.063;1413
673.125;1416
673.188;1413
673.250;1418
673.313;1406
673.375;1406
673.438;1411
673.500;1403
673.563;1411
673.625;1411
673.688;1413
673.750;1411
673.813;1418
673.875;1408
673.938;1411
674.000;1416
674.063;1423
674.125;1403
674.188;1411
674.250;1411
674.313;1416
674.375;1411
674.438;1413
674.500;1416
674.563;1413
674.625;1418
674.688;1425
674.750;1403
674.813;1413
674.875;1408
674.938;1411
675.000;1408
675.063;1408
675.125;1423
675.188;1420
675.250;1423
675.313;1411
675.375;1411
675.438;1401
675.500;1406
675.563;1416
675.625;1411
675.688;1413
675.750;1411
675.813;1416
675.875;1416
675.938;1416
676.000;1418
676.063;1403
676.125;1418
676.188;1416
676.250;1411
676.313;1413
676.375;1406
676.438;1411
676.500;1403
676.563;1418
676.625;1416
676.688;1406
676.750;1416
676.813;1413
676.875;1411
676.938;1416
677.000;1413
677.063;1418
677.125;1413
677.188;1413
677.250;1411
677.313;1398
677.375;1406
677.438;1408
677.500;1413
677.563;1411
677.625;1408
677.688;1411
677.750;1403
677.813;1408
677.875;1406
677.938;1423
678.000;1418
678.063;1413
678.125;1413
678.188;1423
678.250;1406
678.313;1413
678.375;1411
678.438;1406
678.500;1408
678.563;1408
678.625;1416
678.688;1408
678.750;1403
678.813;1416
678.875;1413
678.938;1413
679.000;1406
679.063;1413
679.125;1408
679.188;1413
679.250;1413
679.313;1403
679.375;1416
679.438;1406
679.500;1403
679.563;1408
679.625;1406
679.688;1416
679.750;1416
679.813;1411
679.875;1406
679.938;1411
680.000;1406
680.063;1406
680.125;1406
680.188;1408
680.250;1413
680.313;1413
680.375;1408
680.438;1416
680.500;1406
680.563;1411
680.625;1411
680.688;1411
680.750;1403
680.813;1408
680.875;1416
680.938;1403
681.000;1408
681.063;1406
681.125;1401
681.188;1408
681.250;1413
681.313;1406
681.375;1411
681.438;1413
681.500;1403
681.563;1416
681.625;1406
681.688;1406
681.750;1406
681.813;1403
681.875;1403
681.938;1403
682.000;1420
682.063;1406
682.125;1408
682.188;1408
682.250;1411
682.313;1403
682.375;1406
682.438;1401
682.500;1406
682.563;1413
682.625;1411
682.688;1408
682.750;1406
682.813;1411
682.875;1413
682.938;1401
683.000;1413
683.063;1406
683.125;1403
683.188;1406
683.250;1403
683.313;1406
683.375;1413
683.438;1413
683.500;1406
683.563;1416
683.625;1411
683.688;1401
683.750;1408
683.813;1401
683.875;1398
683.938;1403
684.000;1411
684.063;1411
684.125;1413
684.188;1403
684.250;1413
684.313;1411
684.375;1411
684.438;1413
684.500;1408
684.563;1403
684.625;1411
684.688;1406
684.750;1403
684.813;1394
684.875;1401
684.938;1408
685.000;1406
685.063;1413
685.125;1411
685.188;1411
685.250;1413
685.313;1401
685.375;1408
685.438;1401
685.500;1406
685.563;1413
685.625;1403
685.688;1413
685.750;1413
685.813;1411
685.875;1401
685.938;1406
686.000;1413
686.063;1401
686.125;1408
686.188;1406
686.250;1406
686.313;1403
686.375;1416
686.438;1408
686.500;1416
686.563;1411
686.625;1401
686.688;1413
686.750;1413
686.813;1406
686.875;1411
686.938;1403
687.000;1403
687.063;1411
687.125;1406
687.188;1408
687.250;1406
687.313;1401
687.375;1420
687.438;1406
687.500;1406
687.563;1403
687.625;1403
687.688;1413
687.750;1406
687.813;1408
687.875;1394
687.938;1418
688.000;1413
688.063;1413
688.125;1401
688.188;1411
688.250;1411
688.313;1411
688.375;1411
688.438;1411
688.500;1401
688.563;1406
688.625;1406
688.688;1408
688.750;1413
688.813;1416
688.875;1406
688.938;1411
689.000;1411
689.063;1418
689.125;1406
689.188;1411
689.250;1413
689.313;1411
689.375;1408
689.438;1413
689.500;1413
689.563;1403
689.625;1403
689.688;1411
689.750;1416
689.813;1411
689.875;1411
689.938;1408
690.000;1411
690.063;1411
690.125;1413
690.188;1406
690.250;1408
690.313;1396
690.375;1401
690.438;1413
690.500;1408
690.563;1406
690.625;1403
690.688;1406
690.750;1416
690.813;1398
690.875;1411
690.938;1413
691.000;1408
691.063;1408
691.125;1413
691.188;1413
691.250;1403
691.313;1406
691.375;1406
691.438;1418
691.500;1416
691.563;1413
691.625;1413
691.688;1408
691.750;1408
691.813;1406
691.875;1408
691.938;1411
692.000;1408
692.063;1408
692.125;1411
692.188;1413
692.250;1408
692.313;1401
692.375;1406
692.438;1413
692.500;1408
692.563;1403
692.625;1403
692.688;1413
692.750;1401
692.813;1403
692.875;1408
692.938;1408
693.000;1408
693.063;1408
693.125;1403
693.188;1408
693.250;1411
693.313;1406
693.375;1406
693.438;1413
693.500;1403
693.563;1413
693.625;1408
693.688;1411
693.750;1401
693.813;1406
693.875;1406
693.938;1413
694.000;1403
694.063;1406
694.125;1403
694.188;1401
694.250;1398
694.313;1401
694.375;1411
694.438;1406
694.500;1406
694.563;1403
694.625;1408
694.688;1413
694.750;1403
694.813;1403
694.875;1411
694.938;1411
695.000;1406
695.063;1411
695.125;1416
695.188;1411
695.250;1398
695.313;1408
695.375;1406
695.438;1408
695.500;1401
695.563;1398
695.625;1406
695.688;1408
695.750;1408
695.813;1403
695.875;1406
695.938;1396
696.000;1408
696.063;1401
696.125;1401
696.188;1418
696.250;1401
696.313;1406
696.375;1401
696.438;1403
696.500;1401
696.563;1406
696.625;1401
696.688;1416
696.750;1408
696.813;1401
696.875;1403
696.938;1403
697.000;1398
697.063;1403
697.125;1408
697.188;1401
697.250;1401
697.313;1411
697.375;1408
697.438;1408
697.500;1406
697.563;1413
697.625;1406
697.688;1401
697.750;1401
697.813;1403
697.875;1403
697.938;1411
698.000;1411
698.063;1403
698.125;1401
698.188;1398
698.250;1401
698.313;1403
698.375;1406
698.438;1401
698.500;1406
698.563;1416
698.625;1403
698.688;1403
698.750;1408
698.813;1413
698.875;1396
698.938;1413
699.000;1406
699.063;1408
699.125;1411
699.188;1403
699.250;1403
699.313;1406
699.375;1403
699.438;1413
699.500;1403
699.563;1408
699.625;1416
699.688;1408
699.750;1401
699.813;1403
699.875;1413
699.938;1403
700.000;1408
700.063;1413
700.125;1413
700.188;1406
700.250;1403
700.313;1403
700.375;1403
700.438;1413
700.500;1411
700.563;1396
700.625;1406
700.688;1398
700.750;1413
700.813;1408
700.875;1394
700.938;1411
701.000;1413
701.063;1408
701.125;1403
701.188;1401
701.250;1403
701.313;1401
701.375;1416
701.438;1403
701.500;1406
701.563;1411
701.625;1403
701.688;1401
701.750;1396
701.813;1406
701.875;1406
701.938;1408
702.000;1408
702.063;1416
702.125;1406
702.188;1408
702.250;1401
702.313;1406
702.375;1416
702.438;1413
702.500;1411
702.563;1398
702.625;1411
702.688;1413
702.750;1408
702.813;1418
702.875;1403
702.938;1406
703.000;1406
703.063;1413
703.125;1401
703.188;1406
703.250;1401
703.313;1411
703.375;1413
703.438;1406
703.500;1408
703.563;1406
703.625;1408
703.688;1411
703.750;1413
703.813;1408
703.875;1403
703.938;1406
704.000;1408
704.063;1403
704.125;1398
704.188;1408
704.250;1401
704.313;1411
704.375;1401
704.438;1406
704.500;1406
704.563;1408
704.625;1413
704.688;1408
704.750;1406
704.813;1413
704.875;1408
704.938;1401
705.000;1398
705.063;1406
705.125;1411
705.188;1406
705.250;1411
705.313;1408
705.375;1406
705.438;1396
705.500;1408
705.563;1406
705.625;1394
705.688;1406
705.750;1403
705.813;1406
705.875;1406
705.938;1408
706.000;1398
706.063;1406
706.125;1403
706.188;1406
706.250;1403
706.313;1394
706.375;1401
706.438;1413
706.500;1408
706.563;1403
706.625;1398
706.688;1411
706.750;1406
706.813;1408
706.875;1398
706.938;1411
707.000;1396
707.063;1396
707.125;1411
707.188;1411
707.250;1413
707.313;1416
707.375;1403
707.438;1401
707.500;1408
707.563;1403
707.625;1413
707.688;1401
707.750;1401
707.813;1408
707.875;1406
707.938;1396
708.000;1398
708.063;1401
708.125;1403
708.188;1408
708.250;1403
708.313;1401
708.375;1403
708.438;1401
708.500;1398
708.563;1411
708.625;1394
708.688;1403
708.750;1406
708.813;1413
708.875;1406
708.938;1398
709.000;1408
709.063;1406
709.125;1403
709.188;1411
709.250;1406
709.313;1403
709.375;1406
709.438;1398
709.500;1406
709.563;1403
709.625;1408
709.688;1413
709.750;1401
709.813;1401
709.875;1403
709.938;1401
710.000;1403
710.063;1401
710.125;1408
710.188;1411
710.250;1406
710.313;1408
710.375;1401
710.438;1394
710.500;1411
710.563;1403
710.625;1398
710.688;1411
710.750;1411
710.813;1401
710.875;1406
710.938;1401
711.000;1396
711.063;1398
711.125;1403
711.188;1403
711.250;1408
711.313;1396
711.375;1413
711.438;1408
711.500;1406
711.563;1401
711.625;1403
711.688;1406
711.750;1398
711.813;1403
711.875;1403
711.938;1408
712.000;1403
712.063;1406
712.125;1408
712.188;1401
712.250;1403
712.313;1406
712.375;1406
712.438;1396
712.500;1416
712.563;1401
712.625;1418
712.688;1406
712.750;1396
712.813;1406
712.875;1406
712.938;1401
713.000;1408
713.063;1401
713.125;1403
713.188;1401
713.250;1411
713.313;1398
713.375;1403
713.438;1403
713.500;1406
713.563;1403
713.625;1406
713.688;1403
713.750;1413
713.813;1403
713.875;1406
713.938;1406
714.000;1398
714.063;1403
714.125;1408
714.188;1408
714.250;1406
714.313;1396
714.375;1403
714.438;1408
714.500;1403
714.563;1396
714.625;1413
714.688;1401
714.750;1403
714.813;1406
714.875;1403
714.938;1411
715.000;1406
715.063;1406
715.125;1398
715.188;1398
715.250;1406
715.313;1406
715.375;1406
715.438;1403
715.500;1403
715.563;1408
715.625;1403
715.688;1413
715.750;1406
715.813;1408
715.875;1396
715.938;1398
716.000;1411
716.063;1406
716.125;1403
716.188;1403
716.250;1401
716.313;1398
716.375;1398
716.438;1411
716.500;1394
716.563;1408
716.625;1403
716.688;1396
716.750;1411
716.813;1416
716.875;1403
716.938;1411
717.000;1408
717.063;1396
717.125;1401
717.188;1401
717.250;1408
717.313;1403
717.375;1401
717.438;1403
717.500;1394
717.563;1396
717.625;1398
717.688;1396
717.750;1403
717.813;1403
717.875;1408
717.938;1411
718.000;1403
718.063;1403
718.125;1406
718.188;1403
718.250;1403
718.313;1403
718.375;1408
718.438;1403
718.500;1403
718.563;1401
718.625;1411
718.688;1401
718.750;1403
718.813;1396
718.875;1403
718.938;1403
719.000;1408
719.063;1403
719.125;1403
719.188;1396
719.250;1403
719.313;1391
719.375;1391
719.438;1398
719.500;1403
719.563;1401
719.625;1406
719.688;1403
719.750;1403
719.813;1408
719.875;1398
719.938;1401
720.000;1396
720.063;1398
720.125;1398
720.188;1406
720.250;1398
720.313;1398
720.375;1391
720.438;1406
720.500;1401
720.563;1401
720.625;1401
720.688;1401
720.750;1408
720.813;1408
720.875;1403
720.938;1394
721.000;1396
721.063;1398
721.125;1403
721.188;1401
721.250;1403
721.313;1406
721.375;1398
721.438;1403
721.500;1411
721.563;1394
721.625;1403
721.688;1394
721.750;1403
721.813;1406
721.875;1401
721.938;1406
722.000;1403
722.063;1403
722.125;1396
722.188;1403
722.250;1406
722.313;1396
722.375;1396
722.438;1396
722.500;1396
722.563;1403
722.625;1406
722.688;1398
722.750;1401
722.813;1406
722.875;1408
722.938;1396
723.000;1396
723.063;1386
723.125;1398
723.188;1398
723.250;1396
723.313;1403
723.375;1396
723.438;1401
723.500;1406
723.563;1398
723.625;1401
723.688;1408
723.750;1398
723.813;1391
723.875;1401
723.938;1403
724.000;1396
724.063;1398
724.125;1411
724.188;1403
724.250;1401
724.313;1403
724.375;1401
724.438;1403
724.500;1406
724.563;1396
724.625;1408
724.688;1396
724.750;1401
724.813;1394
724.875;1401
724.938;1401
725.000;1408
725.063;1401
725.125;1403
725.188;1403
725.250;1401
725.313;1403
725.375;1403
725.438;1398
725.500;1396
725.563;1403
725.625;1398
725.688;1396
725.750;1391
725.813;1403
725.875;1406
725.938;1396
726.000;1398
726.063;1398
726.125;1403
726.188;1394
726.250;1401
726.313;1398
726.375;1403
726.438;1403
726.500;1398
726.563;1406
726.625;1403
726.688;1394
726.750;1401
726.813;1398
726.875;1396
726.938;1394
727.000;1396
727.063;1401
727.125;1398
727.188;1398
727.250;1401
727.313;1401
727.375;1403
727.438;1408
727.500;1396
727.563;1401
727.625;1398
727.688;1396
727.750;1406
727.813;1408
727.875;1401
727.938;1394
728.000;1396
728.063;1403
728.125;1406
728.188;1401
728.250;1406
728.313;1389
728.375;1391
728.438;1403
728.500;1398
728.563;1396
728.625;1401
728.688;1403
728.750;1406
728.813;1398
728.875;1408
728.938;1396
729.000;1394
729.063;1401
729.125;1396
729.188;1403
729.250;1394
729.313;1406
729.375;1398
729.438;1416
729.500;1403
729.563;1403
729.625;1396
729.688;1401
729.750;1391
729.813;1398
729.875;1403
729.938;1401
730.000;1401
730.063;1396
730.125;1389
730.188;1396
730.250;1406
730.313;1396
730.375;1396
730.438;1396
730.500;1396
730.563;1406
730.625;1398
730.688;1401
730.750;1396
730.813;1401
730.875;1396
730.938;1389
731.000;1401
731.063;1406
731.125;1391
731.188;1406
731.250;1401
731.313;1389
731.375;1403
731.438;1396
731.500;1396
731.563;1398
731.625;1386
731.688;1406
731.750;1406
731.813;1406
731.875;1403
731.938;1403
732.000;1394
732.063;1403
732.125;1398
732.188;1398
732.250;1391
732.313;1396
732.375;1401
732.438;1401
732.500;1398
732.563;1396
732.625;1406
732.688;1398
732.750;1396
732.813;1406
732.875;1403
732.938;1403
733.000;1394
733.063;1401
733.125;1394
733.188;1406
733.250;1401
733.313;1406
733.375;1398
733.438;1401
733.500;1394
733.563;1394
733.625;1394
733.688;1398
733.750;1401
733.813;1398
733.875;1398
733.938;1394
734.000;1394
734.063;1398
734.125;1401
734.188;1398
734.250;1398
734.313;1403
734.375;1386
734.438;1389
734.500;1406
734.563;1394
734.625;1394
734.688;1394
734.750;1396
734.813;1396
734.875;1398
734.938;1394
735.000;1394
735.063;1394
735.125;1389
735.188;1401
735.250;1396
735.313;1394
735.375;1394
735.438;1396
735.500;1394
735.563;1401
735.625;1398
735.688;1398
735.750;1394
735.813;1391
735.875;1401
735.938;1391
736.000;1394
736.063;1401
736.125;1403
736.188;1396
736.250;1394
736.313;1386
736.375;1396
736.438;1394
736.500;1394
736.563;1396
736.625;1396
736.688;1403
736.750;1386
736.813;1398
736.875;1398
736.938;1389
737.000;1391
737.063;1406
737.125;1403
737.188;1396
737.250;1396
737.313;1398
737.375;1398
737.438;1398
737.500;1401
737.563;1403
737.625;1396
737.688;1394
737.750;1394
737.813;1394
737.875;1398
737.938;1394
738.000;1398
738.063;1401
738.125;1403
738.188;1398
738.250;1391
738.313;1398
738.375;1396
738.438;1386
738.500;1394
738.563;1396
738.625;1389
738.688;1398
738.750;1401
738.813;1396
738.875;1403
738.938;1401
739.000;1398
739.063;1408
739.125;1403
739.188;1403
739.250;1391
739.313;1391
739.375;1396
739.438;1394
739.500;1398
739.563;1386
739.625;1401
739.688;1403
739.750;1396
739.813;1401
739.875;1391
739.938;1398
740.000;1396
740.063;1394
740.125;1396
740.188;1396
740.250;1394
740.313;1389
740.375;1396
740.438;1401
740.500;1391
740.563;1398
740.625;1403
740.688;1394
740.750;1391
740.813;1396
740.875;1391
740.938;1389
741.000;1401
741.063;1403
741.125;1401
741.188;1394
741.250;1394
741.313;1391
741.375;1394
741.438;1389
741.500;1396
741.563;1394
741.625;1389
741.688;1396
741.750;1394
741.813;1401
741.875;1396
741.938;1394
742.000;1396
742.063;1389
742.125;1389
742.188;1394
742.250;1396
742.313;1391
742.375;1389
742.438;1386
742.500;1396
742.563;1379
742.625;1389
742.688;1386
742.750;1391
742.813;1389
742.875;1394
742.938;1386
743.000;1389
743.063;1391
743.125;1389
743.188;1386
743.250;1389
743.313;1396
743.375;1386
743.438;1396
743.500;1403
743.563;1389
743.625;1396
743.688;1398
743.750;1386
743.813;1379
743.875;1398
743.938;1403
744.000;1396
744.063;1389
744.125;1394
744.188;1391
744.250;1403
744.313;1396
744.375;1394
744.438;1391
744.500;1391
744.563;1394
744.625;1391
744.688;1381
744.750;1386
744.813;1394
744.875;1391
744.938;1396
745.000;1394
745.063;1381
745.125;1398
745.188;1396
745.250;1394
745.313;1394
745.375;1398
745.438;1396
745.500;1376
745.563;1394
745.625;1389
745.688;1401
745.750;1401
745.813;1389
745.875;1386
745.938;1391
746.000;1391
746.063;1394
746.125;1391
746.188;1389
746.250;1394
746.313;1396
746.375;1389
746.438;1394
746.500;1389
746.563;1386
746.625;1389
746.688;1384
746.750;1386
746.813;1394
746.875;1386
746.938;1384
747.000;1394
747.063;1398
747.125;1386
747.188;1386
747.250;1391
747.313;1386
747.375;1384
747.438;1394
747.500;1394
747.563;1391
747.625;1381
747.688;1389
747.750;1396
747.813;1391
747.875;1394
747.938;1391
748.000;1391
748.063;1389
748.125;1389
748.188;1391
748.250;1391
748.313;1389
748.375;1391
748.438;1394
748.500;1389
748.563;1384
748.625;1391
748.688;1384
748.750;1389
748.813;1394
748.875;1389
748.938;1394
749.000;1386
749.063;1389
749.125;1389
749.188;1384
749.250;1389
749.313;1386
749.375;1389
749.438;1386
749.500;1381
749.563;1391
749.625;1391
749.688;1391
749.750;1394
749.813;1391
749.875;1389
749.938;1386
750.000;1391
750.063;1381
750.125;1381
750.188;1384
750.250;1384
750.313;1386
750.375;1394
750.438;1384
750.500;1381
750.563;1386
750.625;1386
750.688;1381
750.750;1381
750.813;1381
750.875;1386
750.938;1381
751.000;1379
751.063;1391
751.125;1384
751.188;1394
751.250;1394
751.313;1386
751.375;1384
751.438;1376
751.500;1384
751.563;1391
751.625;1381
751.688;1389
751.750;1384
751.813;1389
751.875;1386
751.938;1379
752.000;1384
752.063;1379
752.125;1389
752.188;1374
752.250;1391
752.313;1396
752.375;1379
752.438;1384
752.500;1381
752.563;1386
752.625;1386
752.688;1376
752.750;1369
752.813;1381
752.875;1394
752.938;1391
753.000;1386
753.063;1381
753.125;1381
753.188;1379
753.250;1384
753.313;1376
753.375;1384
753.438;1386
753.500;1374
753.563;1389
753.625;1386
753.688;1384
753.750;1386
753.813;1386
753.875;1381
753.938;1374
754.000;1384
754.063;1379
754.125;1386
754.188;1384
754.250;1384
754.313;1389
754.375;1391
754.438;1367
754.500;1384
754.563;1384
754.625;1379
754.688;1384
754.750;1386
754.813;1374
754.875;1386
754.938;1379
755.000;1379
755.063;1381
755.125;1389
755.188;1372
755.250;1384
755.313;1386
755.375;1379
755.438;1386
755.500;1386
755.563;1376
755.625;1376
755.688;1379
755.750;1381
755.813;1386
755.875;1376
755.938;1376
756.000;1386
756.063;1386
756.125;1376
756.188;1379
756.250;1381
756.313;1381
756.375;1376
756.438;1372
756.500;1372
756.563;1376
756.625;1374
756.688;1372
756.750;1379
756.813;1386
756.875;1369
756.938;1376
757.000;1379
757.063;1379
757.125;1379
757.188;1381
757.250;1376
757.313;1379
757.375;1374
757.438;1376
757.500;1386
757.563;1381
757.625;1381
757.688;1374
757.750;1369
757.813;1381
757.875;1384
757.938;1379
758.000;1376
758.063;1374
758.125;1379
758.188;1374
758.250;1384
758.313;1384
758.375;1379
758.438;1372
758.500;1376
758.563;1379
758.625;1374
758.688;1376
758.750;1376
758.813;1381
758.875;1369
758.938;1376
759.000;1374
759.063;1379
759.125;1367
759.188;1374
759.250;1376
759.313;1384
759.375;1374
759.438;1376
759.500;1384
759.563;1379
759.625;1374
759.688;1379
759.750;1379
759.813;1372
759.875;1372
759.938;1376
760.000;1381
760.063;1367
760.125;1372
760.188;1369
760.250;1376
760.313;1372
760.375;1374
760.438;1364
760.500;1376
760.563;1384
760.625;1374
760.688;1379
760.750;1372
760.813;1374
760.875;1376
760.938;1379
761.000;1386
761.063;1374
761.125;1384
761.188;1367
761.250;1372
761.313;1376
761.375;1367
761.438;1372
761.500;1369
761.563;1369
761.625;1381
761.688;1379
761.750;1372
761.813;1374
761.875;1379
761.938;1374
762.000;1374
762.063;1376
762.125;1379
762.188;1367
762.250;1372
762.313;1374
762.375;1376
762.438;1374
762.500;1376
762.563;1374
762.625;1379
762.688;1376
762.750;1374
762.813;1376
762.875;1381
762.938;1379
763.000;1374
763.063;1381
763.125;1376
763.188;1374
763.250;1384
763.313;1372
763.375;1372
763.438;1372
763.500;1376
763.563;1384
763.625;1376
763.688;1374
763.750;1381
763.813;1364
763.875;1376
763.938;1376
764.000;1376
764.063;1376
764.125;1372
764.188;1379
764.250;1372
764.313;1374
764.375;1384
764.438;1374
764.500;1384
764.563;1372
764.625;1372
764.688;1379
764.750;1367
764.813;1386
764.875;1374
764.938;1372
765.000;1364
765.063;1369
765.125;1372
765.188;1369
765.250;1379
765.313;1369
765.375;1369
765.438;1379
765.500;1379
765.563;1367
765.625;1367
765.688;1372
765.750;1381
765.813;1364
765.875;1367
765.938;1372
766.000;1376
766.063;1376
766.125;1374
766.188;1362
766.250;1369
766.313;1367
766.375;1376
766.438;1369
766.500;1372
766.563;1364
766.625;1374
766.688;1369
766.750;1372
766.813;1369
766.875;1369
766.938;1367
767.000;1369
767.063;1369
767.125;1372
767.188;1364
767.250;1374
767.313;1369
767.375;1372
767.438;1364
767.500;1372
767.563;1359
767.625;1374
767.688;1372
767.750;1362
767.813;1369
767.875;1374
767.938;1369
768.000;1357
768.063;1367
768.125;1367
768.188;1362
768.250;1357
768.313;1362
768.375;1362
768.438;1364
768.500;1362
768.563;1372
768.625;1367
768.688;1369
768.750;1372
768.813;1359
768.875;1364
768.938;1367
769.000;1364
769.063;1374
769.125;1367
769.188;1367
769.250;1364
769.313;1369
769.375;1374
769.438;1367
769.500;1364
769.563;1362
769.625;1364
769.688;1372
769.750;1369
769.813;1367
769.875;1364
769.938;1357
770.000;1364
770.063;1369
770.125;1364
770.188;1367
770.250;1372
770.313;1367
770.375;1369
770.438;1367
770.500;1367
770.563;1367
770.625;1364
770.688;1376
770.750;1372
770.813;1364
770.875;1374
770.938;1362
771.000;1369
771.063;1367
771.125;1362
771.188;1359
771.250;1369
771.313;1367
771.375;1369
771.438;1359
771.500;1364
771.563;1359
771.625;1362
771.688;1357
771.750;1357
771.813;1367
771.875;1372
771.938;1367
772.000;1369
772.063;1362
772.125;1362
772.188;1359
772.250;1359
772.313;1364
772.375;1354
772.438;1362
772.500;1369
772.563;1364
772.625;1357
772.688;1362
772.750;1372
772.813;1367
772.875;1369
772.938;1364
773.000;1364
773.063;1367
773.125;1362
773.188;1362
773.250;1364
773.313;1362
773.375;1359
773.438;1372
773.500;1374
773.563;1367
773.625;1362
773.688;1364
773.750;1367
773.813;1367
773.875;1364
773.938;1367
774.000;1367
774.063;1354
774.125;1362
774.188;1357
774.250;1364
774.313;1359
774.375;1369
774.438;1364
774.500;1364
774.563;1369
774.625;1369
774.688;1359
774.750;1367
774.813;1364
774.875;1367
774.938;1369
775.000;1367
775.063;1364
775.125;1367
775.188;1362
775.250;1374
775.313;1367
775.375;1372
775.438;1374
775.500;1364
775.563;1362
775.625;1364
775.688;1357
775.750;1362
775.813;1359
775.875;1364
775.938;1364
776.000;1367
776.063;1369
776.125;1367
776.188;1369
776.250;1357
776.313;1369
776.375;1374
776.438;1359
776.500;1364
776.563;1362
776.625;1372
776.688;1369
776.750;1354
776.813;1367
776.875;1376
776.938;1354
777.000;1362
777.063;1362
777.125;1364
777.188;1357
777.250;1364
777.313;1359
777.375;1364
777.438;1354
777.500;1372
777.563;1364
777.625;1367
777.688;1359
777.750;1364
777.813;1362
777.875;1362
777.938;1357
778.000;1359
778.063;1364
778.125;1367
778.188;1369
778.250;1364
778.313;1362
778.375;1350
778.438;1364
778.500;1362
778.563;1367
778.625;1359
778.688;1364
778.750;1362
778.813;1367
778.875;1369
778.938;1367
779.000;1367
779.063;1357
779.125;1354
779.188;1362
779.250;1359
779.313;1362
779.375;1362
779.438;1359
779.500;1364
779.563;1359
779.625;1359
779.688;1354
779.750;1364
779.813;1350
779.875;1357
779.938;1362
780.000;1359
780.063;1359
780.125;1364
780.188;1362
780.250;1359
780.313;1354
780.375;1362
780.438;1367
780.500;1357
780.563;1354
780.625;1362
780.688;1352
780.750;1350
780.813;1357
780.875;1354
780.938;1367
781.000;1357
781.063;1357
781.125;1367
781.188;1362
781.250;1364
781.313;1357
781.375;1357
781.438;1359
781.500;1367
781.563;1359
781.625;1362
781.688;1364
781.750;1354
781.813;1359
781.875;1352
781.938;1357
782.000;1357
782.063;1357
782.125;1350
782.188;1367
782.250;1362
782.313;1352
782.375;1359
782.438;1354
782.500;1362
782.563;1367
782.625;1352
782.688;1359
782.750;1364
782.813;1364
782.875;1359
782.938;1350
783.000;1352
783.063;1364
783.125;1359
783.188;1362
783.250;1367
783.313;1354
783.375;1364
783.438;1362
783.500;1352
783.563;1354
783.625;1352
783.688;1352
783.750;1347
783.813;1347
783.875;1357
783.938;1354
784.000;1357
784.063;1352
784.125;1364
784.188;1357
784.250;1354
784.313;1357
784.375;1352
784.438;1364
784.500;1362
784.563;1350
784.625;1350
784.688;1354
784.750;1362
784.813;1364
784.875;1357
784.938;1359
785.000;1354
785.063;1354
785.125;1354
785.188;1350
785.250;1357
785.313;1357
785.375;1352
785.438;1347
785.500;1354
785.563;1347
785.625;1354
785.688;1357
785.750;1362
785.813;1354
785.875;1354
785.938;1364
786.000;1357
786.063;1340
786.125;1350
786.188;1352
786.250;1354
786.313;1352
786.375;1359
786.438;1352
786.500;1367
786.563;1350
786.625;1359
786.688;1354
786.750;1345
786.813;1352
786.875;1364
786.938;1357
787.000;1345
787.063;1357
787.125;1350
787.188;1357
787.250;1354
787.313;1357
787.375;1350
787.438;1347
787.500;1357
787.563;1352
787.625;1357
787.688;1359
787.750;1364
787.813;1352
787.875;1352
787.938;1350
788.000;1352
788.063;1347
788.125;1359
788.188;1354
788.250;1354
788.313;1357
788.375;1357
788.438;1350
788.500;1354
788.563;1350
788.625;1345
788.688;1354
788.750;1352
788.813;1357
788.875;1347
788.938;1352
789.000;1354
789.063;1347
789.125;1362
789.188;1352
789.250;1350
789.313;1340
789.375;1350
789.438;1352
789.500;1354
789.563;1359
789.625;1354
789.688;1345
789.750;1354
789.813;1352
789.875;1347
789.938;1354
790.000;1350
790.063;1350
790.125;1354
790.188;1342
790.250;1337
790.313;1352
790.375;1354
790.438;1345
790.500;1354
790.563;1347
790.625;1350
790.688;1342
790.750;1337
790.813;1347
790.875;1350
790.938;1352
791.000;1354
791.063;1350
791.125;1347
791.188;1345
791.250;1354
791.313;1345
791.375;1359
791.438;1345
791.500;1350
791.563;1335
791.625;1354
791.688;1345
791.750;1345
791.813;1347
791.875;1342
791.938;1345
792.000;1352
792.063;1340
792.125;1345
792.188;1337
792.250;1352
792.313;1342
792.375;1342
792.438;1340
792.500;1350
792.563;1350
792.625;1342
792.688;1347
792.750;1342
792.813;1347
792.875;1357
792.938;1347
793.000;1340
793.063;1352
793.125;1350
793.188;1347
793.250;1345
793.313;1347
793.375;1337
793.438;1347
793.500;1345
793.563;1354
793.625;1340
793.688;1335
793.750;1337
793.813;1345
793.875;1345
793.938;1347
794.000;1347
794.063;1337
794.125;1342
794.188;1342
794.250;1340
794.313;1352
794.375;1345
794.438;1342
794.500;1347
794.563;1350
794.625;1337
794.688;1340
794.750;1342
794.813;1330
794.875;1350
794.938;1350
795.000;1345
795.063;1350
795.125;1337
795.188;1350
795.250;1352
795.313;1345
795.375;1335
795.438;1335
795.500;1345
795.563;1342
795.625;1340
795.688;1340
795.750;1342
795.813;1342
795.875;1337
795.938;1357
796.000;1345
796.063;1340
796.125;1340
796.188;1337
796.250;1350
796.313;1342
796.375;1340
796.438;1340
796.500;1340
796.563;1345
796.625;1352
796.688;1345
796.750;1347
796.813;1345
796.875;1345
796.938;1340
797.000;1340
797.063;1345
797.125;1342
797.188;1342
797.250;1350
797.313;1347
797.375;1347
797.438;1340
797.500;1342
797.563;1347
797.625;1347
797.688;1345
797.750;1352
797.813;1350
797.875;1350
797.938;1342
798.000;1340
798.063;1345
798.125;1345
798.188;1345
798.250;1342
798.313;1345
798.375;1350
798.438;1337
798.500;1335
798.563;1350
798.625;1340
798.688;1347
798.750;1337
798.813;1345
798.875;1342
798.938;1347
799.000;1342
799.063;1345
799.125;1335
799.188;1340
799.250;1350
799.313;1335
799.375;1335
799.438;1345
799.500;1337
799.563;1347
799.625;1342
799.688;1345
799.750;1345
799.813;1357
799.875;1347
799.938;1347
800.000;1342
800.063;1345
800.125;1342
800.188;1340
800.250;1354
800.313;1345
800.375;1340
800.438;1335
800.500;1337
800.563;1325
800.625;1337
800.688;1347
800.750;1337
800.813;1342
800.875;1335
800.938;1340
801.000;1342
801.063;1342
801.125;1342
801.188;1342
801.250;1340
801.313;1345
801.375;1347
801.438;1350
801.500;1337
801.563;1347
801.625;1352
801.688;1342
801.750;1340
801.813;1342
801.875;1347
801.938;1347
802.000;1345
802.063;1330
802.125;1337
802.188;1342
802.250;1342
802.313;1347
802.375;1342
802.438;1337
802.500;1340
802.563;1342
802.625;1340
802.688;1345
802.750;1340
802.813;1328
802.875;1342
802.938;1335
803.000;1335
803.063;1345
803.125;1330
803.188;1340
803.250;1330
803.313;1330
803.375;1335
803.438;1347
803.500;1342
803.563;1328
803.625;1337
803.688;1325
803.750;1345
803.813;1347
803.875;1337
803.938;1340
804.000;1342
804.063;1335
804.125;1337
804.188;1330
804.250;1335
804.313;1342
804.375;1345
804.438;1340
804.500;1335
804.563;1340
804.625;1335
804.688;1340
804.750;1335
804.813;1335
804.875;1340
804.938;1340
805.000;1340
805.063;1335
805.125;1345
805.188;1337
805.250;1335
805.313;1337
805.375;1333
805.438;1347
805.500;1340
805.563;1335
805.625;1337
805.688;1335
805.750;1335
805.813;1340
805.875;1328
805.938;1340
806.000;1335
806.063;1335
806.125;1330
806.188;1335
806.250;1328
806.313;1330
806.375;1333
806.438;1342
806.500;1342
806.563;1328
806.625;1335
806.688;1335
806.750;1330
806.813;1337
806.875;1335
806.938;1333
807.000;1330
807.063;1335
807.125;1337
807.188;1330
807.250;1330
807.313;1335
807.375;1335
807.438;1333
807.500;1335
807.563;1328
807.625;1337
807.688;1337
807.750;1333
807.813;1340
807.875;1330
807.938;1330
808.000;1330
808.063;1328
808.125;1328
808.188;1330
808.250;1330
808.313;1337
808.375;1328
808.438;1337
808.500;1333
808.563;1342
808.625;1330
808.688;1328
808.750;1333
808.813;1323
808.875;1330
808.938;1345
809.000;1342
809.063;1333
809.125;1333
809.188;1335
809.250;1335
809.313;1342
809.375;1335
809.438;1337
809.500;1337
809.563;1335
809.625;1333
809.688;1330
809.750;1335
809.813;1337
809.875;1337
809.938;1318
810.000;1323
810.063;1328
810.125;1333
810.188;1337
810.250;1345
810.313;1335
810.375;1337
810.438;1333
810.500;1340
810.563;1333
810.625;1328
810.688;1333
810.750;1340
810.813;1335
810.875;1333
810.938;1335
811.000;1337
811.063;1335
811.125;1337
811.188;1345
811.250;1337
811.313;1333
811.375;1337
811.438;1340
811.500;1325
811.563;1337
811.625;1345
811.688;1335
811.750;1340
811.813;1330
811.875;1350
811.938;1325
812.000;1335
812.063;1335
812.125;1335
812.188;1335
812.250;1335
812.313;1342
812.375;1342
812.438;1335
812.500;1335
812.563;1342
812.625;1337
812.688;1335
812.750;1340
812.813;1337
812.875;1342
812.938;1340
813.000;1333
813.063;1337
813.125;1342
813.188;1330
813.250;1337
813.313;1328
813.375;1330
813.438;1335
813.500;1337
813.563;1333
813.625;1335
813.688;1340
813.750;1335
813.813;1335
813.875;1335
813.938;1333
814.000;1335
814.063;1335
814.125;1333
814.188;1325
814.250;1330
814.313;1335
814.375;1333
814.438;1335
814.500;1335
814.563;1333
814.625;1328
814.688;1333
814.750;1333
814.813;1330
814.875;1333
814.938;1337
815.000;1335
815.063;1335
815.125;1328
815.188;1333
815.250;1342
815.313;1345
815.375;1320
815.438;1325
815.500;1337
815.563;1335
815.625;1325
815.688;1340
815.750;1328
815.813;1337
815.875;1330
815.938;1328
816.000;1328
816.063;1333
816.125;1325
816.188;1335
816.250;1323
816.313;1325
816.375;1333
816.438;1330
816.500;1335
816.563;1345
816.625;1330
816.688;1330
816.750;1333
816.813;1337
816.875;1330
816.938;1335
817.000;1337
817.063;1335
817.125;1333
817.188;1320
817.250;1342
817.313;1333
817.375;1325
817.438;1333
817.500;1330
817.563;1342
817.625;1333
817.688;1330
817.750;1323
817.813;1333
817.875;1335
817.938;1337
818.000;1323
818.063;1328
818.125;1328
818.188;1320
818.250;1337
818.313;1335
818.375;1337
818.438;1328
818.500;1333
818.563;1330
818.625;1333
818.688;1337
818.750;1325
818.813;1335
818.875;1342
818.938;1330
819.000;1330
819.063;1333
819.125;1323
819.188;1333
819.250;1328
819.313;1330
819.375;1335
819.438;1333
819.500;1328
819.563;1328
819.625;1333
819.688;1335
819.750;1330
819.813;1330
819.875;1328
819.938;1335
820.000;1330
820.063;1333
820.125;1330
820.188;1333
820.250;1325
820.313;1333
820.375;1328
820.438;1333
820.500;1328
820.563;1342
820.625;1325
820.688;1320
820.750;1323
820.813;1340
820.875;1333
820.938;1335
821.000;1320
821.063;1333
821.125;1335
821.188;1333
821.250;1337
821.313;1330
821.375;1325
821.438;1323
821.500;1330
821.563;1333
821.625;1325
821.688;1328
821.750;1328
821.813;1337
821.875;1333
821.938;1318
822.000;1330
822.063;1333
822.125;1328
822.188;1323
822.250;1325
822.313;1325
822.375;1328
822.438;1333
822.500;1337
822.563;1335
822.625;1330
822.688;1328
822.750;1335
822.813;1337
822.875;1330
822.938;1328
823.000;1325
823.063;1333
823.125;1337
823.188;1333
823.250;1337
823.313;1337
823.375;1328
823.438;1337
823.500;1333
823.563;1335
823.625;1337
823.688;1335
823.750;1328
823.813;1335
823.875;1325
823.938;1330
824.000;1323
824.063;1337
824.125;1330
824.188;1337
824.250;1333
824.313;1325
824.375;1333
824.438;1330
824.500;1328
824.563;1315
824.625;1333
824.688;1328
824.750;1330
824.813;1323
824.875;1328
824.938;1330
825.000;1325
825.063;1333
825.125;1333
825.188;1337
825.250;1325
825.313;1342
825.375;1320
825.438;1325
825.500;1333
825.563;1330
825.625;1333
825.688;1333
825.750;1337
825.813;1330
825.875;1328
825.938;1328
826.000;1318
826.063;1337
826.125;1328
826.188;1325
826.250;1323
826.313;1318
826.375;1323
826.438;1330
826.500;1328
826.563;1328
826.625;1335
826.688;1328
826.750;1328
826.813;1330
826.875;1330
826.938;1328
827.000;1335
827.063;1328
827.125;1323
827.188;1333
827.250;1328
827.313;1328
827.375;1320
827.438;1335
827.500;1318
827.563;1325
827.625;1318
827.688;1320
827.750;1325
827.813;1328
827.875;1333
827.938;1320
828.000;1320
828.063;1325
828.125;1325
828.188;1325
828.250;1320
828.313;1318
828.375;1325
828.438;1323
828.500;1320
828.563;1330
828.625;1318
828.688;1333
828.750;1318
828.813;1325
828.875;1328
828.938;1320
829.000;1323
829.063;1325
829.125;1308
829.188;1330
829.250;1320
829.313;1330
829.375;1323
829.438;1325
829.500;1323
829.563;1325
829.625;1323
829.688;1313
829.750;1325
829.813;1325
829.875;1325
829.938;1325
830.000;1325
830.063;1328
830.125;1328
830.188;1313
830.250;1318
830.313;1318
830.375;1320
830.438;1325
830.500;1335
830.563;1325
830.625;1318
830.688;1328
830.750;1315
830.813;1330
830.875;1325
830.938;1328
831.000;1328
831.063;1325
831.125;1330
831.188;1333
831.250;1325
831.313;1328
831.375;1320
831.438;1325
831.500;1335
831.563;1330
831.625;1330
831.688;1323
831.750;1333
831.813;1330
831.875;1315
831.938;1325
832.000;1325
832.063;1325
832.125;1325
832.188;1330
832.250;1323
832.313;1318
832.375;1333
832.438;1325
832.500;1320
832.563;1330
832.625;1315
832.688;1320
832.750;1325
832.813;1325
832.875;1325
832.938;1328
833.000;1333
833.063;1323
833.125;1323
833.188;1325
833.250;1325
833.313;1328
833.375;1325
833.438;1330
833.500;1325
833.563;1325
833.625;1325
833.688;1320
833.750;1328
833.813;1330
833.875;1328
833.938;1325
834.000;1325
834.063;1318
834.125;1320
834.188;1335
834.250;1328
834.313;1328
834.375;1333
834.438;1318
834.500;1328
834.563;1325
834.625;1320
834.688;1323
834.750;1333
834.813;1325
834.875;1318
834.938;1325
835.000;1323
835.063;1328
835.125;1325
835.188;1328
835.250;1328
835.313;1328
835.375;1325
835.438;1318
835.500;1320
835.563;1328
835.625;1323
835.688;1325
835.750;1328
835.813;1330
835.875;1328
835.938;1330
836.000;1325
836.063;1325
836.125;1318
836.188;1328
836.250;1328
836.313;1323
836.375;1318
836.438;1325
836.500;1330
836.563;1320
836.625;1318
836.688;1330
836.750;1328
836.813;1325
836.875;1318
836.938;1335
837.000;1330
837.063;1330
837.125;1325
837.188;1323
837.250;1323
837.313;1335
837.375;1315
837.438;1328
837.500;1325
837.563;1323
837.625;1318
837.688;1318
837.750;1328
837.813;1318
837.875;1328
837.938;1323
838.000;1318
838.063;1318
838.125;1325
838.188;1318
838.250;1330
838.313;1323
838.375;1328
838.438;1325
838.500;1315
838.563;1320
838.625;1333
838.688;1318
838.750;1323
838.813;1311
838.875;1325
838.938;1320
839.000;1328
839.063;1325
839.125;1325
839.188;1325
839.250;1328
839.313;1325
839.375;1325
839.438;1325
839.500;1323
839.563;1323
839.625;1328
839.688;1328
839.750;1320
839.813;1333
839.875;1315
839.938;1320
840.000;1328
840.063;1323
840.125;1335
840.188;1325
840.250;1318
840.313;1315
840.375;1320
840.438;1333
840.500;1323
840.563;1333
840.625;1325
840.688;1328
840.750;1318
840.813;1320
840.875;1318
840.938;1313
841.000;1323
841.063;1330
841.125;1325
841.188;1325
841.250;1320
841.313;1315
841.375;1330
841.438;1318
841.500;1323
841.563;1320
841.625;1328
841.688;1325
841.750;1323
841.813;1313
841.875;1328
841.938;1323
842.000;1313
842.063;1320
842.125;1325
842.188;1325
842.250;1328
842.313;1315
842.375;1318
842.438;1320
842.500;1311
842.563;1318
842.625;1330
842.688;1328
842.750;1325
842.813;1323
842.875;1330
842.938;1318
843.000;1318
843.063;1318
843.125;1323
843.188;1318
843.250;1325
843.313;1325
843.375;1318
843.438;1320
843.500;1320
843.563;1325
843.625;1333
843.688;1328
843.750;1328
843.813;1320
843.875;1315
843.938;1320
844.000;1320
844.063;1323
844.125;1315
844.188;1318
844.250;1323
844.313;1320
844.375;1318
844.438;1311
844.500;1318
844.563;1328
844.625;1313
844.688;1320
844.750;1328
844.813;1320
844.875;1323
844.938;1328
845.000;1328
845.063;1328
845.125;1318
845.188;1320
845.250;1318
845.313;1318
845.375;1323
845.438;1323
845.500;1323
845.563;1318
845.625;1318
845.688;1320
845.750;1320
845.813;1320
845.875;1308
845.938;1320
846.000;1320
846.063;1320
846.125;1318
846.188;1323
846.250;1320
846.313;1323
846.375;1323
846.438;1325
846.500;1325
846.563;1323
846.625;1325
846.688;1315
846.750;1320
846.813;1320
846.875;1325
846.938;1318
847.000;1313
847.063;1325
847.125;1318
847.188;1320
847.250;1318
847.313;1325
847.375;1325
847.438;1320
847.500;1318
847.563;1313
847.625;1325
847.688;1323
847.750;1320
847.813;1320
847.875;1313
847.938;1323
848.000;1320
848.063;1325
848.125;1323
848.188;1320
848.250;1328
848.313;1313
848.375;1328
848.438;1313
848.500;1320
848.563;1318
848.625;1320
848.688;1325
848.750;1315
848.813;1323
848.875;1325
848.938;1320
849.000;1320
849.063;1320
849.125;1323
849.188;1323
849.250;1320
849.313;1315
849.375;1320
849.438;1323
849.500;1328
849.563;1311
849.625;1323
849.688;1320
849.750;1333
849.813;1325
849.875;1315
849.938;1315
850.000;1325
850.063;1325
850.125;1323
850.188;1330
850.250;1323
850.313;1323
850.375;1323
850.438;1318
850.500;1313
850.563;1315
850.625;1323
850.688;1320
850.750;1318
850.813;1320
850.875;1315
850.938;1325
851.000;1311
851.063;1323
851.125;1328
851.188;1320
851.250;1325
851.313;1320
851.375;1323
851.438;1318
851.500;1323
851.563;1318
851.625;1325
851.688;1323
851.750;1318
851.813;1320
851.875;1318
851.938;1313
852.000;1320
852.063;1313
852.125;1320
852.188;1313
852.250;1313
852.313;1318
852.375;1318
852.438;1318
852.500;1318
852.563;1315
852.625;1323
852.688;1318
852.750;1318
852.813;1315
852.875;1320
852.938;1311
853.000;1323
853.063;1313
853.125;1320
853.188;1313
853.250;1323
853.313;1320
853.375;1315
853.438;1311
853.500;1311
853.563;1315
853.625;1315
853.688;1325
853.750;1308
853.813;1311
853.875;1311
853.938;1320
854.000;1318
854.063;1311
854.125;1318
854.188;1313
854.250;1313
854.313;1306
854.375;1311
854.438;1308
854.500;1320
854.563;1311
854.625;1323
854.688;1318
854.750;1318
854.813;1330
854.875;1308
854.938;1318
855.000;1313
855.063;1311
855.125;1315
855.188;1313
855.250;1323
855.313;1311
855.375;1303
855.438;1325
855.500;1315
855.563;1308
855.625;1315
855.688;1315
855.750;1315
855.813;1323
855.875;1313
855.938;1303
856.000;1313
856.063;1308
856.125;1313
856.188;1313
856.250;1313
856.313;1313
856.375;1320
856.438;1313
856.500;1313
856.563;1313
856.625;1315
856.688;1318
856.750;1313
856.813;1306
856.875;1313
856.938;1315
857.000;1313
857.063;1308
857.125;1306
857.188;1315
857.250;1311
857.313;1308
857.375;1325
857.438;1308
857.500;1308
857.563;1311
857.625;1318
857.688;1323
857.750;1320
857.813;1313
857.875;1308
857.938;1313
858.000;1311
858.063;1313
858.125;1306
858.188;1318
858.250;1308
858.313;1318
858.375;1303
858.438;1315
858.500;1318
858.563;1318
858.625;1311
858.688;1318
858.750;1311
858.813;1318
858.875;1315
858.938;1311
859.000;1311
859.063;1311
859.125;1311
859.188;1325
859.250;1306
859.313;1313
859.375;1308
859.438;1315
859.500;1313
859.563;1308
859.625;1306
859.688;1308
859.750;1318
859.813;1315
859.875;1308
859.938;1306
860.000;1311
860.063;1311
860.125;1296
860.188;1315
860.250;1318
860.313;1318
860.375;1306
860.438;1308
860.500;1318
860.563;1318
860.625;1301
860.688;1308
860.750;1313
860.813;1306
860.875;1318
860.938;1313
861.000;1315
861.063;1318
861.125;1320
861.188;1315
861.250;1318
861.313;1301
861.375;1308
861.438;1306
861.500;1318
861.563;1313
861.625;1311
861.688;1306
861.750;1301
861.813;1311
861.875;1313
861.938;1306
862.000;1313
862.063;1313
862.125;1306
862.188;1306
862.250;1308
862.313;1306
862.375;1313
862.438;1306
862.500;1306
862.563;1306
862.625;1303
862.688;1311
862.750;1311
862.813;1306
862.875;1306
862.938;1311
863.000;1306
863.063;1311
863.125;1308
863.188;1308
863.250;1311
863.313;1311
863.375;1311
863.438;1301
863.500;1311
863.563;1308
863.625;1293
863.688;1315
863.750;1306
863.813;1306
863.875;1306
863.938;1306
864.000;1303
864.063;1311
864.125;1301
864.188;1308
864.250;1296
864.313;1308
864.375;1303
864.438;1301
864.500;1308
864.563;1303
864.625;1308
864.688;1303
864.750;1306
864.813;1313
864.875;1303
864.938;1293
865.000;1301
865.063;1301
865.125;1308
865.188;1298
865.250;1301
865.313;1311
865.375;1308
865.438;1306
865.500;1308
865.563;1298
865.625;1303
865.688;1301
865.750;1311
865.813;1306
865.875;1298
865.938;1306
866.000;1303
866.063;1308
866.125;1308
866.188;1306
866.250;1298
866.313;1301
866.375;1291
866.438;1301
866.500;1298
866.563;1298
866.625;1301
866.688;1303
866.750;1293
866.813;1306
866.875;1301
866.938;1298
867.000;1293
867.063;1301
867.125;1303
867.188;1298
867.250;1306
867.313;1291
867.375;1308
867.438;1301
867.500;1298
867.563;1313
867.625;1306
867.688;1296
867.750;1296
867.813;1303
867.875;1293
867.938;1298
868.000;1298
868.063;1301
868.125;1301
868.188;1306
868.250;1301
868.313;1298
868.375;1293
868.438;1291
868.500;1291
868.563;1301
868.625;1303
868.688;1301
868.750;1291
868.813;1296
868.875;1298
868.938;1298
869.000;1298
869.063;1303
869.125;1301
869.188;1303
869.250;1303
869.313;1301
869.375;1298
869.438;1301
869.500;1298
869.563;1289
869.625;1306
869.688;1296
869.750;1293
869.813;1298
869.875;1298
869.938;1313
870.000;1296
