Frequency[MHz];Amplitude RX1[mV] at pwm=120;SW-version 1.24, e-Callisto
 45.000;1491
 45.063;1364
 45.125;1311
 45.188;1242
 45.250;1162
 45.313;1159
 45.375;1157
 45.438;1162
 45.500;1159
 45.563;1169
 45.625;1159
 45.688;1171
 45.750;1164
 45.813;1166
 45.875;1174
 45.938;1181
 46.000;1179
 46.063;1176
 46.125;1179
 46.188;1166
 46.250;1166
 46.313;1179
 46.375;1176
 46.438;1179
 46.500;1174
 46.563;1186
 46.625;1184
 46.688;1186
 46.750;1181
 46.813;1188
 46.875;1188
 46.938;1193
 47.000;1181
 47.063;1201
 47.125;1186
 47.188;1193
 47.250;1193
 47.313;1203
 47.375;1198
 47.438;1196
 47.500;1196
 47.563;1201
 47.625;1196
 47.688;1201
 47.750;1198
 47.813;1198
 47.875;1201
 47.938;1206
 48.000;1201
 48.063;1201
 48.125;1206
 48.188;1203
 48.250;1203
 48.313;1198
 48.375;1208
 48.438;1193
 48.500;1203
 48.563;1206
 48.625;1201
 48.688;1208
 48.750;1203
 48.813;1206
 48.875;1203
 48.938;1203
 49.000;1220
 49.063;1198
 49.125;1203
 49.188;1201
 49.250;1210
 49.313;1215
 49.375;1213
 49.438;1210
 49.500;1203
 49.563;1206
 49.625;1208
 49.688;1206
 49.750;1215
 49.813;1196
 49.875;1203
 49.938;1210
 50.000;1210
 50.063;1206
 50.125;1206
 50.188;1206
 50.250;1208
 50.313;1208
 50.375;1210
 50.438;1210
 50.500;1201
 50.563;1210
 50.625;1210
 50.688;1203
 50.750;1206
 50.813;1206
 50.875;1215
 50.938;1210
 51.000;1215
 51.063;1215
 51.125;1215
 51.188;1206
 51.250;1210
 51.313;1215
 51.375;1201
 51.438;1208
 51.500;1210
 51.563;1208
 51.625;1206
 51.688;1210
 51.750;1215
 51.813;1215
 51.875;1213
 51.938;1210
 52.000;1210
 52.063;1206
 52.125;1210
 52.188;1213
 52.250;1208
 52.313;1215
 52.375;1223
 52.438;1220
 52.500;1206
 52.563;1213
 52.625;1208
 52.688;1220
 52.750;1220
 52.813;1210
 52.875;1220
 52.938;1213
 53.000;1210
 53.063;1220
 53.125;1220
 53.188;1220
 53.250;1220
 53.313;1223
 53.375;1223
 53.438;1215
 53.500;1218
 53.563;1218
 53.625;1215
 53.688;1225
 53.750;1218
 53.813;1220
 53.875;1218
 53.938;1225
 54.000;1220
 54.063;1225
 54.125;1237
 54.188;1225
 54.250;1228
 54.313;1225
 54.375;1232
 54.438;1225
 54.500;1235
 54.563;1235
 54.625;1235
 54.688;1240
 54.750;1235
 54.813;1237
 54.875;1228
 54.938;1228
 55.000;1237
 55.063;1245
 55.125;1247
 55.188;1228
 55.250;1230
 55.313;1252
 55.375;1252
 55.438;1252
 55.500;1242
 55.563;1237
 55.625;1250
 55.688;1242
 55.750;1245
 55.813;1245
 55.875;1250
 55.938;1252
 56.000;1254
 56.063;1254
 56.125;1247
 56.188;1254
 56.250;1254
 56.313;1252
 56.375;1245
 56.438;1250
 56.500;1259
 56.563;1254
 56.625;1262
 56.688;1250
 56.750;1264
 56.813;1269
 56.875;1264
 56.938;1262
 57.000;1264
 57.063;1264
 57.125;1257
 57.188;1269
 57.250;1257
 57.313;1264
 57.375;1267
 57.438;1267
 57.500;1276
 57.563;1271
 57.625;1269
 57.688;1271
 57.750;1276
 57.813;1267
 57.875;1269
 57.938;1276
 58.000;1284
 58.063;1276
 58.125;1284
 58.188;1284
 58.250;1276
 58.313;1279
 58.375;1279
 58.438;1286
 58.500;1286
 58.563;1289
 58.625;1279
 58.688;1284
 58.750;1284
 58.813;1279
 58.875;1281
 58.938;1286
 59.000;1281
 59.063;1289
 59.125;1281
 59.188;1296
 59.250;1291
 59.313;1286
 59.375;1281
 59.438;1281
 59.500;1301
 59.563;1281
 59.625;1293
 59.688;1286
 59.750;1286
 59.813;1281
 59.875;1293
 59.938;1293
 60.000;1276
 60.063;1296
 60.125;1289
 60.188;1293
 60.250;1286
 60.313;1296
 60.375;1289
 60.438;1298
 60.500;1286
 60.563;1291
 60.625;1286
 60.688;1296
 60.750;1291
 60.813;1291
 60.875;1296
 60.938;1296
 61.000;1291
 61.063;1286
 61.125;1291
 61.188;1289
 61.250;1291
 61.313;1291
 61.375;1289
 61.438;1293
 61.500;1286
 61.563;1284
 61.625;1286
 61.688;1291
 61.750;1284
 61.813;1291
 61.875;1286
 61.938;1271
 62.000;1284
 62.063;1279
 62.125;1301
 62.188;1286
 62.250;1281
 62.313;1281
 62.375;1284
 62.438;1296
 62.500;1284
 62.563;1281
 62.625;1286
 62.688;1293
 62.750;1291
 62.813;1291
 62.875;1284
 62.938;1289
 63.000;1281
 63.063;1289
 63.125;1286
 63.188;1286
 63.250;1279
 63.313;1293
 63.375;1284
 63.438;1286
 63.500;1286
 63.563;1286
 63.625;1289
 63.688;1286
 63.750;1291
 63.813;1289
 63.875;1289
 63.938;1284
 64.000;1284
 64.063;1284
 64.125;1286
 64.188;1284
 64.250;1284
 64.313;1274
 64.375;1284
 64.438;1286
 64.500;1291
 64.563;1293
 64.625;1286
 64.688;1286
 64.750;1289
 64.813;1293
 64.875;1291
 64.938;1291
 65.000;1293
 65.063;1284
 65.125;1291
 65.188;1291
 65.250;1291
 65.313;1289
 65.375;1286
 65.438;1291
 65.500;1284
 65.563;1284
 65.625;1284
 65.688;1296
 65.750;1279
 65.813;1289
 65.875;1296
 65.938;1296
 66.000;1291
 66.063;1286
 66.125;1298
 66.188;1289
 66.250;1296
 66.313;1308
 66.375;1308
 66.438;1313
 66.500;1330
 66.563;1315
 66.625;1318
 66.688;1303
 66.750;1298
 66.813;1293
 66.875;1298
 66.938;1296
 67.000;1298
 67.063;1311
 67.125;1303
 67.188;1293
 67.250;1301
 67.313;1303
 67.375;1308
 67.438;1311
 67.500;1306
 67.563;1306
 67.625;1308
 67.688;1306
 67.750;1303
 67.813;1313
 67.875;1298
 67.938;1308
 68.000;1313
 68.063;1313
 68.125;1315
 68.188;1308
 68.250;1311
 68.313;1318
 68.375;1313
 68.438;1318
 68.500;1313
 68.563;1315
 68.625;1318
 68.688;1328
 68.750;1320
 68.813;1323
 68.875;1335
 68.938;1323
 69.000;1323
 69.063;1318
 69.125;1325
 69.188;1333
 69.250;1325
 69.313;1333
 69.375;1335
 69.438;1333
 69.500;1340
 69.563;1328
 69.625;1337
 69.688;1325
 69.750;1333
 69.813;1335
 69.875;1340
 69.938;1342
 70.000;1337
 70.063;1345
 70.125;1330
 70.188;1335
 70.250;1342
 70.313;1342
 70.375;1340
 70.438;1335
 70.500;1340
 70.563;1347
 70.625;1340
 70.688;1347
 70.750;1345
 70.813;1335
 70.875;1337
 70.938;1342
 71.000;1337
 71.063;1347
 71.125;1350
 71.188;1347
 71.250;1345
 71.313;1347
 71.375;1337
 71.438;1347
 71.500;1342
 71.563;1340
 71.625;1345
 71.688;1347
 71.750;1350
 71.813;1354
 71.875;1357
 71.938;1340
 72.000;1342
 72.063;1357
 72.125;1350
 72.188;1342
 72.250;1345
 72.313;1337
 72.375;1352
 72.438;1347
 72.500;1347
 72.563;1347
 72.625;1340
 72.688;1352
 72.750;1342
 72.813;1345
 72.875;1345
 72.938;1347
 73.000;1345
 73.063;1350
 73.125;1342
 73.188;1340
 73.250;1345
 73.313;1345
 73.375;1337
 73.438;1345
 73.500;1340
 73.563;1342
 73.625;1340
 73.688;1342
 73.750;1342
 73.813;1340
 73.875;1342
 73.938;1342
 74.000;1340
 74.063;1345
 74.125;1347
 74.188;1350
 74.250;1337
 74.313;1342
 74.375;1340
 74.438;1337
 74.500;1347
 74.563;1345
 74.625;1342
 74.688;1333
 74.750;1330
 74.813;1337
 74.875;1345
 74.938;1335
 75.000;1337
 75.063;1342
 75.125;1333
 75.188;1335
 75.250;1328
 75.313;1342
 75.375;1333
 75.438;1342
 75.500;1333
 75.563;1335
 75.625;1337
 75.688;1333
 75.750;1330
 75.813;1337
 75.875;1337
 75.938;1333
 76.000;1333
 76.063;1328
 76.125;1340
 76.188;1340
 76.250;1335
 76.313;1333
 76.375;1333
 76.438;1333
 76.500;1345
 76.563;1337
 76.625;1335
 76.688;1328
 76.750;1333
 76.813;1330
 76.875;1330
 76.938;1340
 77.000;1337
 77.063;1337
 77.125;1340
 77.188;1333
 77.250;1340
 77.313;1342
 77.375;1335
 77.438;1345
 77.500;1345
 77.563;1345
 77.625;1335
 77.688;1337
 77.750;1335
 77.813;1347
 77.875;1335
 77.938;1347
 78.000;1335
 78.063;1342
 78.125;1340
 78.188;1333
 78.250;1337
 78.313;1345
 78.375;1337
 78.438;1342
 78.500;1350
 78.563;1350
 78.625;1335
 78.688;1345
 78.750;1340
 78.813;1340
 78.875;1337
 78.938;1345
 79.000;1340
 79.063;1347
 79.125;1345
 79.188;1342
 79.250;1345
 79.313;1354
 79.375;1367
 79.438;1352
 79.500;1352
 79.563;1352
 79.625;1357
 79.688;1352
 79.750;1357
 79.813;1350
 79.875;1350
 79.938;1354
 80.000;1367
 80.063;1362
 80.125;1352
 80.188;1359
 80.250;1347
 80.313;1359
 80.375;1359
 80.438;1362
 80.500;1364
 80.563;1364
 80.625;1362
 80.688;1359
 80.750;1364
 80.813;1359
 80.875;1364
 80.938;1357
 81.000;1362
 81.063;1372
 81.125;1367
 81.188;1364
 81.250;1367
 81.313;1364
 81.375;1367
 81.438;1364
 81.500;1364
 81.563;1376
 81.625;1374
 81.688;1364
 81.750;1374
 81.813;1376
 81.875;1384
 81.938;1376
 82.000;1367
 82.063;1367
 82.125;1379
 82.188;1374
 82.250;1369
 82.313;1372
 82.375;1372
 82.438;1379
 82.500;1381
 82.563;1379
 82.625;1381
 82.688;1372
 82.750;1376
 82.813;1376
 82.875;1381
 82.938;1379
 83.000;1386
 83.063;1376
 83.125;1379
 83.188;1372
 83.250;1381
 83.313;1381
 83.375;1376
 83.438;1389
 83.500;1384
 83.563;1376
 83.625;1381
 83.688;1379
 83.750;1384
 83.813;1386
 83.875;1376
 83.938;1386
 84.000;1384
 84.063;1376
 84.125;1386
 84.188;1389
 84.250;1372
 84.313;1376
 84.375;1381
 84.438;1386
 84.500;1379
 84.563;1389
 84.625;1381
 84.688;1374
 84.750;1386
 84.813;1379
 84.875;1384
 84.938;1391
 85.000;1389
 85.063;1389
 85.125;1379
 85.188;1376
 85.250;1381
 85.313;1376
 85.375;1376
 85.438;1374
 85.500;1376
 85.563;1372
 85.625;1374
 85.688;1376
 85.750;1379
 85.813;1381
 85.875;1394
 85.938;1374
 86.000;1372
 86.063;1374
 86.125;1384
 86.188;1379
 86.250;1379
 86.313;1376
 86.375;1374
 86.438;1384
 86.500;1374
 86.563;1374
 86.625;1379
 86.688;1374
 86.750;1372
 86.813;1372
 86.875;1376
 86.938;1374
 87.000;1376
 87.063;1376
 87.125;1372
 87.188;1374
 87.250;1362
 87.313;1369
 87.375;1376
 87.438;1372
 87.500;1369
 87.563;1376
 87.625;1367
 87.688;1379
 87.750;1369
 87.813;1376
 87.875;1367
 87.938;1369
 88.000;1367
 88.063;1374
 88.125;1372
 88.188;1369
 88.250;1364
 88.313;1364
 88.375;1369
 88.438;1364
 88.500;1372
 88.563;1381
 88.625;1376
 88.688;1379
 88.750;1384
 88.813;1374
 88.875;1359
 88.938;1374
 89.000;1374
 89.063;1367
 89.125;1374
 89.188;1374
 89.250;1367
 89.313;1372
 89.375;1372
 89.438;1374
 89.500;1369
 89.563;1374
 89.625;1367
 89.688;1376
 89.750;1374
 89.813;1374
 89.875;1376
 89.938;1372
 90.000;1372
 90.063;1376
 90.125;1379
 90.188;1376
 90.250;1374
 90.313;1374
 90.375;1376
 90.438;1376
 90.500;1374
 90.563;1381
 90.625;1381
 90.688;1376
 90.750;1376
 90.813;1379
 90.875;1384
 90.938;1369
 91.000;1379
 91.063;1379
 91.125;1381
 91.188;1374
 91.250;1374
 91.313;1381
 91.375;1376
 91.438;1381
 91.500;1376
 91.563;1376
 91.625;1386
 91.688;1379
 91.750;1381
 91.813;1389
 91.875;1389
 91.938;1381
 92.000;1384
 92.063;1381
 92.125;1384
 92.188;1396
 92.250;1389
 92.313;1381
 92.375;1391
 92.438;1379
 92.500;1384
 92.563;1394
 92.625;1386
 92.688;1389
 92.750;1391
 92.813;1386
 92.875;1398
 92.938;1386
 93.000;1391
 93.063;1384
 93.125;1384
 93.188;1396
 93.250;1398
 93.313;1389
 93.375;1394
 93.438;1396
 93.500;1389
 93.563;1391
 93.625;1389
 93.688;1401
 93.750;1396
 93.813;1394
 93.875;1403
 93.938;1398
 94.000;1398
 94.063;1403
 94.125;1403
 94.188;1401
 94.250;1411
 94.313;1396
 94.375;1401
 94.438;1396
 94.500;1394
 94.563;1406
 94.625;1391
 94.688;1401
 94.750;1401
 94.813;1398
 94.875;1406
 94.938;1403
 95.000;1398
 95.063;1394
 95.125;1391
 95.188;1403
 95.250;1403
 95.313;1398
 95.375;1398
 95.438;1408
 95.500;1396
 95.563;1403
 95.625;1403
 95.688;1411
 95.750;1411
 95.813;1406
 95.875;1403
 95.938;1396
 96.000;1396
 96.063;1406
 96.125;1408
 96.188;1408
 96.250;1401
 96.313;1403
 96.375;1406
 96.438;1406
 96.500;1396
 96.563;1396
 96.625;1398
 96.688;1401
 96.750;1396
 96.813;1398
 96.875;1411
 96.938;1406
 97.000;1396
 97.063;1403
 97.125;1398
 97.188;1401
 97.250;1403
 97.313;1401
 97.375;1401
 97.438;1406
 97.500;1403
 97.563;1406
 97.625;1403
 97.688;1396
 97.750;1401
 97.813;1403
 97.875;1398
 97.938;1396
 98.000;1406
 98.063;1398
 98.125;1403
 98.188;1396
 98.250;1396
 98.313;1394
 98.375;1401
 98.438;1403
 98.500;1401
 98.563;1394
 98.625;1394
 98.688;1389
 98.750;1398
 98.813;1391
 98.875;1394
 98.938;1394
 99.000;1396
 99.063;1398
 99.125;1396
 99.188;1398
 99.250;1398
 99.313;1398
 99.375;1389
 99.438;1389
 99.500;1396
 99.563;1389
 99.625;1401
 99.688;1394
 99.750;1394
 99.813;1398
 99.875;1396
 99.938;1396
100.000;1394
100.063;1381
100.125;1386
100.188;1394
100.250;1391
100.313;1376
100.375;1398
100.438;1389
100.500;1384
100.563;1389
100.625;1396
100.688;1396
100.750;1384
100.813;1389
100.875;1394
100.938;1394
101.000;1394
101.063;1386
101.125;1384
101.188;1389
101.250;1381
101.313;1389
101.375;1394
101.438;1386
101.500;1396
101.563;1389
101.625;1394
101.688;1394
101.750;1391
101.813;1389
101.875;1401
101.938;1386
102.000;1389
102.063;1396
102.125;1389
102.188;1379
102.250;1396
102.313;1396
102.375;1398
102.438;1391
102.500;1398
102.563;1394
102.625;1391
102.688;1384
102.750;1391
102.813;1391
102.875;1396
102.938;1394
103.000;1386
103.063;1408
103.125;1401
103.188;1381
103.250;1396
103.313;1394
103.375;1384
103.438;1396
103.500;1384
103.563;1386
103.625;1394
103.688;1398
103.750;1394
103.813;1401
103.875;1386
103.938;1401
104.000;1398
104.063;1394
104.125;1398
104.188;1396
104.250;1396
104.313;1411
104.375;1408
104.438;1394
104.500;1408
104.563;1396
104.625;1403
104.688;1406
104.750;1403
104.813;1398
104.875;1401
104.938;1398
105.000;1398
105.063;1408
105.125;1401
105.188;1406
105.250;1401
105.313;1401
105.375;1403
105.438;1403
105.500;1398
105.563;1403
105.625;1406
105.688;1408
105.750;1408
105.813;1411
105.875;1406
105.938;1408
106.000;1401
106.063;1411
106.125;1401
106.188;1396
106.250;1408
106.313;1411
106.375;1413
106.438;1411
106.500;1413
106.563;1411
106.625;1406
106.688;1403
106.750;1413
106.813;1408
106.875;1418
106.938;1408
107.000;1408
107.063;1408
107.125;1406
107.188;1408
107.250;1416
107.313;1403
107.375;1406
107.438;1413
107.500;1406
107.563;1416
107.625;1416
107.688;1416
107.750;1408
107.813;1420
107.875;1403
107.938;1408
108.000;1413
108.063;1418
108.125;1416
108.188;1411
108.250;1411
108.313;1411
108.375;1411
108.438;1411
108.500;1418
108.563;1403
108.625;1416
108.688;1425
108.750;1406
108.813;1418
108.875;1411
108.938;1420
109.000;1408
109.063;1411
109.125;1403
109.188;1406
109.250;1416
109.313;1413
109.375;1411
109.438;1406
109.500;1398
109.563;1411
109.625;1413
109.688;1403
109.750;1406
109.813;1411
109.875;1406
109.938;1398
110.000;1403
110.063;1408
110.125;1406
110.188;1408
110.250;1411
110.313;1408
110.375;1406
110.438;1401
110.500;1403
110.563;1403
110.625;1406
110.688;1401
110.750;1413
110.813;1408
110.875;1398
110.938;1389
111.000;1403
111.063;1398
111.125;1403
111.188;1408
111.250;1398
111.313;1398
111.375;1396
111.438;1403
111.500;1401
111.563;1403
111.625;1396
111.688;1391
111.750;1403
111.813;1406
111.875;1406
111.938;1396
112.000;1401
112.063;1401
112.125;1401
112.188;1396
112.250;1408
112.313;1401
112.375;1398
112.438;1408
112.500;1403
112.563;1394
112.625;1396
112.688;1398
112.750;1403
112.813;1401
112.875;1401
112.938;1403
113.000;1401
113.063;1398
113.125;1401
113.188;1396
113.250;1391
113.313;1398
113.375;1391
113.438;1401
113.500;1391
113.563;1394
113.625;1401
113.688;1398
113.750;1394
113.813;1396
113.875;1406
113.938;1398
114.000;1398
114.063;1394
114.125;1396
114.188;1396
114.250;1394
114.313;1401
114.375;1403
114.438;1398
114.500;1394
114.563;1398
114.625;1401
114.688;1398
114.750;1403
114.813;1403
114.875;1401
114.938;1398
115.000;1403
115.063;1403
115.125;1394
115.188;1406
115.250;1406
115.313;1396
115.375;1401
115.438;1403
115.500;1403
115.563;1398
115.625;1401
115.688;1403
115.750;1411
115.813;1398
115.875;1406
115.938;1406
116.000;1401
116.063;1406
116.125;1403
116.188;1403
116.250;1401
116.313;1403
116.375;1411
116.438;1406
116.500;1406
116.563;1403
116.625;1401
116.688;1401
116.750;1406
116.813;1416
116.875;1408
116.938;1411
117.000;1401
117.063;1416
117.125;1406
117.188;1413
117.250;1403
117.313;1406
117.375;1406
117.438;1416
117.500;1408
117.563;1423
117.625;1413
117.688;1416
117.750;1416
117.813;1416
117.875;1411
117.938;1406
118.000;1413
118.063;1411
118.125;1413
118.188;1420
118.250;1408
118.313;1416
118.375;1411
118.438;1425
118.500;1413
118.563;1423
118.625;1418
118.688;1423
118.750;1406
118.813;1413
118.875;1413
118.938;1420
119.000;1416
119.063;1416
119.125;1420
119.188;1413
119.250;1416
119.313;1416
119.375;1416
119.438;1416
119.500;1413
119.563;1420
119.625;1408
119.688;1411
119.750;1406
119.813;1418
119.875;1420
119.938;1408
120.000;1416
120.063;1425
120.125;1418
120.188;1425
120.250;1420
120.313;1411
120.375;1420
120.438;1413
120.500;1423
120.563;1423
120.625;1423
120.688;1411
120.750;1423
120.813;1416
120.875;1416
120.938;1423
121.000;1418
121.063;1425
121.125;1411
121.188;1418
121.250;1420
121.313;1423
121.375;1420
121.438;1418
121.500;1425
121.563;1416
121.625;1418
121.688;1413
121.750;1406
121.813;1408
121.875;1416
121.938;1413
122.000;1418
122.063;1416
122.125;1416
122.188;1416
122.250;1401
122.313;1413
122.375;1420
122.438;1411
122.500;1408
122.563;1416
122.625;1411
122.688;1411
122.750;1406
122.813;1408
122.875;1413
122.938;1408
123.000;1406
123.063;1413
123.125;1418
123.188;1413
123.250;1408
123.313;1423
123.375;1406
123.438;1403
123.500;1398
123.563;1406
123.625;1413
123.688;1411
123.750;1411
123.813;1411
123.875;1411
123.938;1398
124.000;1401
124.063;1408
124.125;1394
124.188;1401
124.250;1398
124.313;1398
124.375;1406
124.438;1406
124.500;1401
124.563;1418
124.625;1401
124.688;1403
124.750;1411
124.813;1403
124.875;1398
124.938;1403
125.000;1406
125.063;1403
125.125;1408
125.188;1403
125.250;1406
125.313;1401
125.375;1411
125.438;1401
125.500;1401
125.563;1401
125.625;1411
125.688;1401
125.750;1408
125.813;1406
125.875;1403
125.938;1396
126.000;1403
126.063;1406
126.125;1406
126.188;1396
126.250;1398
126.313;1408
126.375;1396
126.438;1403
126.500;1403
126.563;1411
126.625;1411
126.688;1403
126.750;1396
126.813;1416
126.875;1408
126.938;1406
127.000;1396
127.063;1403
127.125;1398
127.188;1411
127.250;1401
127.313;1411
127.375;1396
127.438;1403
127.500;1411
127.563;1401
127.625;1411
127.688;1401
127.750;1411
127.813;1408
127.875;1403
127.938;1411
128.000;1411
128.063;1413
128.125;1406
128.188;1406
128.250;1408
128.313;1401
128.375;1403
128.438;1416
128.500;1413
128.563;1418
128.625;1408
128.688;1416
128.750;1411
128.813;1408
128.875;1408
128.938;1411
129.000;1411
129.063;1411
129.125;1408
129.188;1413
129.250;1418
129.313;1411
129.375;1406
129.438;1408
129.500;1413
129.563;1413
129.625;1406
129.688;1406
129.750;1416
129.813;1413
129.875;1408
129.938;1411
130.000;1418
130.063;1416
130.125;1423
130.188;1413
130.250;1425
130.313;1411
130.375;1420
130.438;1420
130.500;1420
130.563;1413
130.625;1416
130.688;1413
130.750;1413
130.813;1416
130.875;1420
130.938;1416
131.000;1418
131.063;1416
131.125;1411
131.188;1420
131.250;1413
131.313;1416
131.375;1423
131.438;1425
131.500;1416
131.563;1420
131.625;1425
131.688;1416
131.750;1416
131.813;1420
131.875;1425
131.938;1423
132.000;1416
132.063;1418
132.125;1416
132.188;1420
132.250;1418
132.313;1416
132.375;1425
132.438;1428
132.500;1416
132.563;1420
132.625;1418
132.688;1425
132.750;1423
132.813;1428
132.875;1418
132.938;1416
133.000;1430
133.063;1418
133.125;1418
133.188;1411
133.250;1423
133.313;1411
133.375;1416
133.438;1420
133.500;1425
133.563;1416
133.625;1420
133.688;1413
133.750;1428
133.813;1411
133.875;1416
133.938;1416
134.000;1420
134.063;1413
134.125;1420
134.188;1411
134.250;1423
134.313;1418
134.375;1408
134.438;1428
134.500;1420
134.563;1411
134.625;1416
134.688;1411
134.750;1411
134.813;1403
134.875;1416
134.938;1413
135.000;1425
135.063;1418
135.125;1413
135.188;1416
135.250;1411
135.313;1416
135.375;1406
135.438;1403
135.500;1413
135.563;1416
135.625;1411
135.688;1416
135.750;1413
135.813;1411
135.875;1403
135.938;1418
136.000;1418
136.063;1411
136.125;1413
136.188;1406
136.250;1408
136.313;1406
136.375;1408
136.438;1420
136.500;1403
136.563;1408
136.625;1411
136.688;1408
136.750;1403
136.813;1408
136.875;1413
136.938;1411
137.000;1411
137.063;1406
137.125;1413
137.188;1401
137.250;1408
137.313;1403
137.375;1413
137.438;1416
137.500;1408
137.563;1401
137.625;1416
137.688;1408
137.750;1398
137.813;1413
137.875;1396
137.938;1406
138.000;1413
138.063;1398
138.125;1408
138.188;1413
138.250;1401
138.313;1408
138.375;1408
138.438;1403
138.500;1403
138.563;1411
138.625;1411
138.688;1411
138.750;1411
138.813;1408
138.875;1408
138.938;1408
139.000;1408
139.063;1413
139.125;1411
139.188;1413
139.250;1413
139.313;1408
139.375;1406
139.438;1408
139.500;1413
139.563;1411
139.625;1403
139.688;1411
139.750;1413
139.813;1411
139.875;1408
139.938;1406
140.000;1413
140.063;1416
140.125;1408
140.188;1411
140.250;1411
140.313;1413
140.375;1411
140.438;1411
140.500;1411
140.563;1411
140.625;1416
140.688;1411
140.750;1413
140.813;1408
140.875;1411
140.938;1416
141.000;1408
141.063;1406
141.125;1413
141.188;1413
141.250;1416
141.313;1416
141.375;1413
141.438;1411
141.500;1420
141.563;1413
141.625;1413
141.688;1408
141.750;1413
141.813;1416
141.875;1418
141.938;1416
142.000;1416
142.063;1418
142.125;1416
142.188;1420
142.250;1420
142.313;1416
142.375;1418
142.438;1420
142.500;1420
142.563;1428
142.625;1420
142.688;1413
142.750;1418
142.813;1418
142.875;1416
142.938;1418
143.000;1416
143.063;1418
143.125;1425
143.188;1418
143.250;1425
143.313;1416
143.375;1416
143.438;1416
143.500;1425
143.563;1418
143.625;1423
143.688;1418
143.750;1418
143.813;1420
143.875;1425
143.938;1420
144.000;1428
144.063;1413
144.125;1423
144.188;1408
144.250;1420
144.313;1418
144.375;1430
144.438;1423
144.500;1420
144.563;1416
144.625;1416
144.688;1425
144.750;1425
144.813;1423
144.875;1416
144.938;1416
145.000;1420
145.063;1418
145.125;1411
145.188;1428
145.250;1423
145.313;1416
145.375;1423
145.438;1418
145.500;1418
145.563;1425
145.625;1418
145.688;1413
145.750;1420
145.813;1413
145.875;1430
145.938;1428
146.000;1425
146.063;1420
146.125;1418
146.188;1428
146.250;1413
146.313;1418
146.375;1425
146.438;1411
146.500;1423
146.563;1423
146.625;1425
146.688;1413
146.750;1418
146.813;1411
146.875;1418
146.938;1413
147.000;1423
147.063;1403
147.125;1408
147.188;1420
147.250;1416
147.313;1411
147.375;1413
147.438;1408
147.500;1416
147.563;1418
147.625;1413
147.688;1416
147.750;1413
147.813;1420
147.875;1420
147.938;1411
148.000;1413
148.063;1406
148.125;1406
148.188;1411
148.250;1416
148.313;1416
148.375;1420
148.438;1413
148.500;1411
148.563;1406
148.625;1416
148.688;1413
148.750;1408
148.813;1403
148.875;1413
148.938;1411
149.000;1413
149.063;1411
149.125;1413
149.188;1416
149.250;1416
149.313;1408
149.375;1413
149.438;1420
149.500;1413
149.563;1411
149.625;1413
149.688;1413
149.750;1413
149.813;1411
149.875;1411
149.938;1413
150.000;1420
150.063;1425
150.125;1430
150.188;1418
150.250;1416
150.313;1403
150.375;1413
150.438;1408
150.500;1411
150.563;1418
150.625;1418
150.688;1413
150.750;1416
150.813;1416
150.875;1416
150.938;1403
151.000;1411
151.063;1406
151.125;1411
151.188;1406
151.250;1416
151.313;1411
151.375;1406
151.438;1401
151.500;1413
151.563;1406
151.625;1416
151.688;1411
151.750;1401
151.813;1423
151.875;1411
151.938;1416
152.000;1416
152.063;1396
152.125;1411
152.188;1418
152.250;1411
152.313;1418
152.375;1413
152.438;1413
152.500;1423
152.563;1423
152.625;1418
152.688;1423
152.750;1406
152.813;1413
152.875;1413
152.938;1413
153.000;1413
153.063;1413
153.125;1408
153.188;1411
153.250;1408
153.313;1398
153.375;1408
153.438;1416
153.500;1416
153.563;1416
153.625;1413
153.688;1416
153.750;1413
153.813;1413
153.875;1413
153.938;1416
154.000;1418
154.063;1411
154.125;1411
154.188;1416
154.250;1420
154.313;1416
154.375;1411
154.438;1403
154.500;1406
154.563;1403
154.625;1416
154.688;1420
154.750;1411
154.813;1416
154.875;1413
154.938;1425
155.000;1420
155.063;1413
155.125;1408
155.188;1416
155.250;1416
155.313;1408
155.375;1418
155.438;1406
155.500;1420
155.563;1413
155.625;1413
155.688;1411
155.750;1430
155.813;1425
155.875;1425
155.938;1423
156.000;1418
156.063;1423
156.125;1413
156.188;1420
156.250;1423
156.313;1418
156.375;1411
156.438;1413
156.500;1418
156.563;1418
156.625;1416
156.688;1418
156.750;1425
156.813;1420
156.875;1433
156.938;1420
157.000;1418
157.063;1411
157.125;1416
157.188;1411
157.250;1418
157.313;1418
157.375;1413
157.438;1416
157.500;1413
157.563;1420
157.625;1423
157.688;1420
157.750;1413
157.813;1413
157.875;1413
157.938;1416
158.000;1423
158.063;1420
158.125;1420
158.188;1423
158.250;1420
158.313;1416
158.375;1420
158.438;1425
158.500;1418
158.563;1406
158.625;1416
158.688;1420
158.750;1418
158.813;1408
158.875;1425
158.938;1418
159.000;1408
159.063;1418
159.125;1416
159.188;1416
159.250;1408
159.313;1413
159.375;1416
159.438;1416
159.500;1413
159.563;1416
159.625;1413
159.688;1403
159.750;1411
159.813;1420
159.875;1413
159.938;1420
160.000;1413
160.063;1413
160.125;1413
160.188;1413
160.250;1413
160.313;1411
160.375;1418
160.438;1411
160.500;1406
160.563;1411
160.625;1406
160.688;1411
160.750;1406
160.813;1413
160.875;1396
160.938;1411
161.000;1408
161.063;1411
161.125;1411
161.188;1401
161.250;1408
161.313;1406
161.375;1413
161.438;1413
161.500;1413
161.563;1403
161.625;1416
161.688;1411
161.750;1406
161.813;1398
161.875;1411
161.938;1406
162.000;1408
162.063;1401
162.125;1413
162.188;1403
162.250;1403
162.313;1413
162.375;1408
162.438;1406
162.500;1408
162.563;1408
162.625;1408
162.688;1403
162.750;1403
162.813;1398
162.875;1413
162.938;1413
163.000;1408
163.063;1413
163.125;1411
163.188;1403
163.250;1408
163.313;1406
163.375;1413
163.438;1401
163.500;1411
163.563;1406
163.625;1411
163.688;1394
163.750;1403
163.813;1406
163.875;1406
163.938;1406
164.000;1408
164.063;1413
164.125;1408
164.188;1411
164.250;1403
164.313;1408
164.375;1401
164.438;1403
164.500;1403
164.563;1403
164.625;1401
164.688;1403
164.750;1398
164.813;1408
164.875;1403
164.938;1408
165.000;1408
165.063;1401
165.125;1401
165.188;1413
165.250;1406
165.313;1408
165.375;1396
165.438;1398
165.500;1403
165.563;1403
165.625;1401
165.688;1398
165.750;1406
165.813;1406
165.875;1406
165.938;1401
166.000;1408
166.063;1403
166.125;1398
166.188;1406
166.250;1408
166.313;1398
166.375;1403
166.438;1408
166.500;1403
166.563;1408
166.625;1416
166.688;1401
166.750;1408
166.813;1413
166.875;1403
166.938;1401
167.000;1396
167.063;1398
167.125;1401
167.188;1406
167.250;1411
167.313;1408
167.375;1401
167.438;1411
167.500;1403
167.563;1403
167.625;1413
167.688;1403
167.750;1408
167.813;1403
167.875;1403
167.938;1398
168.000;1403
168.063;1403
168.125;1403
168.188;1398
168.250;1403
168.313;1406
168.375;1408
168.438;1406
168.500;1398
168.563;1396
168.625;1406
168.688;1396
168.750;1403
168.813;1401
168.875;1389
168.938;1403
169.000;1396
169.063;1398
169.125;1386
169.188;1398
169.250;1398
169.313;1398
169.375;1391
169.438;1389
169.500;1394
169.563;1389
169.625;1401
169.688;1391
169.750;1396
169.813;1396
169.875;1384
169.938;1389
170.000;1394
170.063;1398
170.125;1391
170.188;1386
170.250;1389
170.313;1391
170.375;1381
170.438;1374
170.500;1396
170.563;1374
170.625;1384
170.688;1386
170.750;1376
170.813;1384
170.875;1372
170.938;1381
171.000;1374
171.063;1376
171.125;1445
171.188;1467
171.250;1469
171.313;1474
171.375;1472
171.438;1494
171.500;1494
171.563;1499
171.625;1496
171.688;1491
171.750;1479
171.813;1474
171.875;1445
171.938;1440
172.000;1450
172.063;1440
172.125;1442
172.188;1442
172.250;1447
172.313;1445
172.375;1433
172.438;1442
172.500;1440
172.563;1440
172.625;1435
172.688;1430
172.750;1437
172.813;1428
172.875;1435
172.938;1437
173.000;1433
173.063;1435
173.125;1435
173.188;1440
173.250;1435
173.313;1433
173.375;1428
173.438;1442
173.500;1435
173.563;1442
173.625;1435
173.688;1435
173.750;1433
173.813;1437
173.875;1442
173.938;1440
174.000;1433
174.063;1430
174.125;1430
174.188;1433
174.250;1425
174.313;1430
174.375;1423
174.438;1425
174.500;1425
174.563;1428
174.625;1430
174.688;1425
174.750;1423
174.813;1428
174.875;1430
174.938;1425
175.000;1423
175.063;1425
175.125;1428
175.188;1425
175.250;1423
175.313;1428
175.375;1428
175.438;1425
175.500;1428
175.563;1425
175.625;1425
175.688;1418
175.750;1418
175.813;1423
175.875;1418
175.938;1428
176.000;1413
176.063;1423
176.125;1420
176.188;1418
176.250;1428
176.313;1418
176.375;1423
176.438;1418
176.500;1425
176.563;1433
176.625;1433
176.688;1428
176.750;1420
176.813;1423
176.875;1420
176.938;1411
177.000;1423
177.063;1428
177.125;1423
177.188;1423
177.250;1423
177.313;1423
177.375;1428
177.438;1428
177.500;1420
177.563;1430
177.625;1428
177.688;1416
177.750;1416
177.813;1433
177.875;1423
177.938;1423
178.000;1420
178.063;1416
178.125;1430
178.188;1433
178.250;1425
178.313;1423
178.375;1418
178.438;1428
178.500;1423
178.563;1418
178.625;1430
178.688;1418
178.750;1423
178.813;1416
178.875;1425
178.938;1430
179.000;1420
179.063;1433
179.125;1423
179.188;1425
179.250;1428
179.313;1425
179.375;1420
179.438;1425
179.500;1420
179.563;1423
179.625;1423
179.688;1425
179.750;1425
179.813;1425
179.875;1430
179.938;1428
180.000;1423
180.063;1416
180.125;1428
180.188;1430
180.250;1418
180.313;1418
180.375;1423
180.438;1430
180.500;1425
180.563;1428
180.625;1420
180.688;1418
180.750;1425
180.813;1428
180.875;1430
180.938;1430
181.000;1425
181.063;1416
181.125;1425
181.188;1418
181.250;1413
181.313;1418
181.375;1420
181.438;1423
181.500;1420
181.563;1430
181.625;1418
181.688;1420
181.750;1413
181.813;1418
181.875;1425
181.938;1435
182.000;1428
182.063;1418
182.125;1423
182.188;1430
182.250;1420
182.313;1413
182.375;1418
182.438;1423
182.500;1420
182.563;1418
182.625;1413
182.688;1420
182.750;1423
182.813;1418
182.875;1420
182.938;1416
183.000;1416
183.063;1411
183.125;1411
183.188;1420
183.250;1420
183.313;1425
183.375;1411
183.438;1411
183.500;1423
183.563;1416
183.625;1420
183.688;1420
183.750;1413
183.813;1416
183.875;1413
183.938;1418
184.000;1418
184.063;1413
184.125;1413
184.188;1420
184.250;1408
184.313;1406
184.375;1416
184.438;1423
184.500;1411
184.563;1420
184.625;1420
184.688;1420
184.750;1411
184.813;1423
184.875;1423
184.938;1423
185.000;1418
185.063;1420
185.125;1408
185.188;1416
185.250;1408
185.313;1408
185.375;1413
185.438;1406
185.500;1423
185.563;1413
185.625;1418
185.688;1428
185.750;1406
185.813;1413
185.875;1416
185.938;1416
186.000;1413
186.063;1411
186.125;1411
186.188;1416
186.250;1406
186.313;1411
186.375;1416
186.438;1416
186.500;1413
186.563;1418
186.625;1408
186.688;1408
186.750;1406
186.813;1411
186.875;1411
186.938;1413
187.000;1413
187.063;1406
187.125;1416
187.188;1411
187.250;1408
187.313;1408
187.375;1411
187.438;1416
187.500;1406
187.563;1411
187.625;1413
187.688;1403
187.750;1408
187.813;1406
187.875;1416
187.938;1408
188.000;1416
188.063;1403
188.125;1413
188.188;1411
188.250;1411
188.313;1416
188.375;1413
188.438;1413
188.500;1416
188.563;1411
188.625;1401
188.688;1411
188.750;1413
188.813;1416
188.875;1403
188.938;1411
189.000;1413
189.063;1408
189.125;1406
189.188;1411
189.250;1411
189.313;1408
189.375;1418
189.438;1403
189.500;1411
189.563;1413
189.625;1416
189.688;1411
189.750;1413
189.813;1411
189.875;1408
189.938;1413
190.000;1408
190.063;1403
190.125;1413
190.188;1416
190.250;1406
190.313;1403
190.375;1416
190.438;1416
190.500;1413
190.563;1420
190.625;1413
190.688;1411
190.750;1418
190.813;1416
190.875;1418
190.938;1416
191.000;1416
191.063;1416
191.125;1403
191.188;1406
191.250;1413
191.313;1411
191.375;1416
191.438;1420
191.500;1411
191.563;1418
191.625;1413
191.688;1408
191.750;1418
191.813;1420
191.875;1408
191.938;1420
192.000;1408
192.063;1413
192.125;1418
192.188;1418
192.250;1413
192.313;1416
192.375;1413
192.438;1408
192.500;1411
192.563;1416
192.625;1416
192.688;1408
192.750;1411
192.813;1418
192.875;1413
192.938;1406
193.000;1413
193.063;1411
193.125;1416
193.188;1418
193.250;1416
193.313;1406
193.375;1413
193.438;1425
193.500;1420
193.563;1423
193.625;1413
193.688;1413
193.750;1413
193.813;1406
193.875;1411
193.938;1408
194.000;1411
194.063;1406
194.125;1418
194.188;1416
194.250;1418
194.313;1420
194.375;1413
194.438;1416
194.500;1411
194.563;1420
194.625;1411
194.688;1406
194.750;1408
194.813;1413
194.875;1403
194.938;1411
195.000;1403
195.063;1411
195.125;1418
195.188;1408
195.250;1420
195.313;1413
195.375;1406
195.438;1413
195.500;1413
195.563;1418
195.625;1411
195.688;1416
195.750;1416
195.813;1418
195.875;1413
195.938;1411
196.000;1413
196.063;1411
196.125;1418
196.188;1411
196.250;1398
196.313;1420
196.375;1408
196.438;1406
196.500;1396
196.563;1408
196.625;1411
196.688;1416
196.750;1411
196.813;1413
196.875;1411
196.938;1411
197.000;1413
197.063;1411
197.125;1411
197.188;1406
197.250;1413
197.313;1408
197.375;1413
197.438;1416
197.500;1403
197.563;1413
197.625;1411
197.688;1411
197.750;1406
197.813;1396
197.875;1401
197.938;1401
198.000;1416
198.063;1411
198.125;1406
198.188;1411
198.250;1416
198.313;1408
198.375;1413
198.438;1408
198.500;1408
198.563;1418
198.625;1401
198.688;1416
198.750;1408
198.813;1413
198.875;1413
198.938;1406
199.000;1408
199.063;1411
199.125;1403
199.188;1406
199.250;1416
199.313;1411
199.375;1406
199.438;1418
199.500;1406
199.563;1418
199.625;1408
199.688;1403
199.750;1413
199.813;1411
199.875;1413
199.938;1423
200.000;1452
200.063;1474
200.125;1503
200.188;1467
200.250;1467
200.313;1425
200.375;1408
200.438;1406
200.500;1408
200.563;1413
200.625;1408
200.688;1406
200.750;1401
200.813;1413
200.875;1406
200.938;1408
201.000;1408
201.063;1413
201.125;1408
201.188;1418
201.250;1403
201.313;1403
201.375;1408
201.438;1411
201.500;1416
201.563;1411
201.625;1411
201.688;1406
201.750;1411
201.813;1413
201.875;1403
201.938;1416
202.000;1403
202.063;1413
202.125;1411
202.188;1408
202.250;1413
202.313;1420
202.375;1406
202.438;1411
202.500;1406
202.563;1403
202.625;1406
202.688;1406
202.750;1398
202.813;1403
202.875;1396
202.938;1403
203.000;1411
203.063;1408
203.125;1411
203.188;1416
203.250;1413
203.313;1416
203.375;1403
203.438;1411
203.500;1413
203.563;1406
203.625;1411
203.688;1406
203.750;1416
203.813;1398
203.875;1418
203.938;1420
204.000;1413
204.063;1413
204.125;1416
204.188;1401
204.250;1408
204.313;1411
204.375;1413
204.438;1413
204.500;1411
204.563;1406
204.625;1413
204.688;1413
204.750;1411
204.813;1420
204.875;1418
204.938;1413
205.000;1408
205.063;1411
205.125;1411
205.188;1416
205.250;1411
205.313;1416
205.375;1411
205.438;1411
205.500;1411
205.563;1411
205.625;1411
205.688;1425
205.750;1408
205.813;1416
205.875;1401
205.938;1418
206.000;1411
206.063;1408
206.125;1418
206.188;1396
206.250;1411
206.313;1416
206.375;1411
206.438;1413
206.500;1406
206.563;1416
206.625;1408
206.688;1411
206.750;1413
206.813;1408
206.875;1408
206.938;1413
207.000;1416
207.063;1408
207.125;1418
207.188;1413
207.250;1423
207.313;1408
207.375;1423
207.438;1413
207.500;1403
207.563;1408
207.625;1406
207.688;1403
207.750;1411
207.813;1413
207.875;1408
207.938;1416
208.000;1406
208.063;1408
208.125;1416
208.188;1413
208.250;1413
208.313;1406
208.375;1413
208.438;1418
208.500;1418
208.563;1411
208.625;1408
208.688;1413
208.750;1420
208.813;1413
208.875;1413
208.938;1416
209.000;1411
209.063;1413
209.125;1416
209.188;1406
209.250;1418
209.313;1416
209.375;1411
209.438;1423
209.500;1408
209.563;1411
209.625;1401
209.688;1408
209.750;1418
209.813;1420
209.875;1411
209.938;1406
210.000;1411
210.063;1418
210.125;1411
210.188;1406
210.250;1413
210.313;1413
210.375;1416
210.438;1416
210.500;1411
210.563;1411
210.625;1416
210.688;1406
210.750;1408
210.813;1408
210.875;1398
210.938;1403
211.000;1413
211.063;1403
211.125;1416
211.188;1413
211.250;1406
211.313;1411
211.375;1413
211.438;1406
211.500;1408
211.563;1408
211.625;1401
211.688;1401
211.750;1413
211.813;1408
211.875;1408
211.938;1408
212.000;1408
212.063;1413
212.125;1403
212.188;1408
212.250;1411
212.313;1408
212.375;1408
212.438;1416
212.500;1413
212.563;1411
212.625;1411
212.688;1408
212.750;1411
212.813;1401
212.875;1408
212.938;1408
213.000;1406
213.063;1408
213.125;1406
213.188;1411
213.250;1403
213.313;1403
213.375;1413
213.438;1420
213.500;1413
213.563;1423
213.625;1418
213.688;1411
213.750;1416
213.813;1408
213.875;1406
213.938;1413
214.000;1408
214.063;1408
214.125;1420
214.188;1411
214.250;1411
214.313;1403
214.375;1398
214.438;1408
214.500;1401
214.563;1411
214.625;1413
214.688;1418
214.750;1398
214.813;1406
214.875;1416
214.938;1408
215.000;1411
215.063;1413
215.125;1411
215.188;1408
215.250;1406
215.313;1413
215.375;1416
215.438;1413
215.500;1416
215.563;1411
215.625;1420
215.688;1411
215.750;1408
215.813;1406
215.875;1413
215.938;1411
216.000;1425
216.063;1408
216.125;1406
216.188;1423
216.250;1408
216.313;1416
216.375;1411
216.438;1406
216.500;1413
216.563;1411
216.625;1406
216.688;1408
216.750;1418
216.813;1411
216.875;1408
216.938;1413
217.000;1413
217.063;1413
217.125;1413
217.188;1413
217.250;1408
217.313;1416
217.375;1420
217.438;1411
217.500;1423
217.563;1416
217.625;1423
217.688;1416
217.750;1406
217.813;1413
217.875;1413
217.938;1406
218.000;1420
218.063;1413
218.125;1413
218.188;1411
218.250;1416
218.313;1406
218.375;1406
218.438;1408
218.500;1411
218.563;1418
218.625;1416
218.688;1416
218.750;1408
218.813;1408
218.875;1403
218.938;1413
219.000;1408
219.063;1416
219.125;1413
219.188;1416
219.250;1411
219.313;1413
219.375;1416
219.438;1411
219.500;1418
219.563;1420
219.625;1416
219.688;1413
219.750;1416
219.813;1416
219.875;1420
219.938;1418
220.000;1418
220.063;1413
220.125;1408
220.188;1423
220.250;1411
220.313;1406
220.375;1413
220.438;1423
220.500;1420
220.563;1408
220.625;1418
220.688;1408
220.750;1418
220.813;1413
220.875;1418
220.938;1418
221.000;1423
221.063;1413
221.125;1416
221.188;1413
221.250;1420
221.313;1418
221.375;1408
221.438;1411
221.500;1408
221.563;1416
221.625;1416
221.688;1416
221.750;1423
221.813;1420
221.875;1408
221.938;1413
222.000;1416
222.063;1406
222.125;1425
222.188;1413
222.250;1423
222.313;1413
222.375;1411
222.438;1408
222.500;1408
222.563;1416
222.625;1416
222.688;1413
222.750;1411
222.813;1418
222.875;1403
222.938;1416
223.000;1416
223.063;1403
223.125;1413
223.188;1408
223.250;1406
223.313;1420
223.375;1413
223.438;1411
223.500;1408
223.563;1411
223.625;1416
223.688;1413
223.750;1416
223.813;1416
223.875;1418
223.938;1418
224.000;1416
224.063;1420
224.125;1413
224.188;1416
224.250;1416
224.313;1411
224.375;1418
224.438;1406
224.500;1420
224.563;1416
224.625;1413
224.688;1420
224.750;1408
224.813;1416
224.875;1408
224.938;1408
225.000;1411
225.063;1423
225.125;1406
225.188;1418
225.250;1411
225.313;1413
225.375;1411
225.438;1411
225.500;1411
225.563;1413
225.625;1403
225.688;1413
225.750;1420
225.813;1408
225.875;1406
225.938;1403
226.000;1418
226.063;1406
226.125;1408
226.188;1413
226.250;1413
226.313;1413
226.375;1428
226.438;1420
226.500;1411
226.563;1416
226.625;1413
226.688;1411
226.750;1406
226.813;1416
226.875;1406
226.938;1411
227.000;1413
227.063;1413
227.125;1418
227.188;1416
227.250;1411
227.313;1413
227.375;1418
227.438;1416
227.500;1416
227.563;1408
227.625;1416
227.688;1418
227.750;1423
227.813;1420
227.875;1418
227.938;1425
228.000;1408
228.063;1408
228.125;1408
228.188;1416
228.250;1425
228.313;1418
228.375;1420
228.438;1413
228.500;1413
228.563;1413
228.625;1411
228.688;1413
228.750;1416
228.813;1416
228.875;1403
228.938;1413
229.000;1423
229.063;1406
229.125;1408
229.188;1418
229.250;1411
229.313;1406
229.375;1413
229.438;1416
229.500;1413
229.563;1403
229.625;1420
229.688;1418
229.750;1418
229.813;1418
229.875;1413
229.938;1418
230.000;1416
230.063;1406
230.125;1413
230.188;1420
230.250;1416
230.313;1416
230.375;1418
230.438;1413
230.500;1403
230.563;1418
230.625;1408
230.688;1416
230.750;1423
230.813;1416
230.875;1416
230.938;1420
231.000;1416
231.063;1411
231.125;1416
231.188;1420
231.250;1423
231.313;1418
231.375;1425
231.438;1413
231.500;1413
231.563;1416
231.625;1408
231.688;1416
231.750;1418
231.813;1408
231.875;1416
231.938;1418
232.000;1423
232.063;1408
232.125;1416
232.188;1420
232.250;1416
232.313;1408
232.375;1418
232.438;1420
232.500;1413
232.563;1416
232.625;1413
232.688;1418
232.750;1423
232.813;1420
232.875;1416
232.938;1420
233.000;1420
233.063;1418
233.125;1416
233.188;1420
233.250;1416
233.313;1423
233.375;1423
233.438;1418
233.500;1416
233.563;1425
233.625;1423
233.688;1411
233.750;1423
233.813;1418
233.875;1423
233.938;1418
234.000;1423
234.063;1418
234.125;1425
234.188;1420
234.250;1418
234.313;1423
234.375;1430
234.438;1411
234.500;1416
234.563;1423
234.625;1420
234.688;1418
234.750;1420
234.813;1420
234.875;1423
234.938;1428
235.000;1423
235.063;1420
235.125;1420
235.188;1423
235.250;1423
235.313;1416
235.375;1418
235.438;1413
235.500;1418
235.563;1423
235.625;1416
235.688;1418
235.750;1416
235.813;1413
235.875;1425
235.938;1420
236.000;1411
236.063;1428
236.125;1423
236.188;1423
236.250;1413
236.313;1420
236.375;1420
236.438;1416
236.500;1418
236.563;1423
236.625;1423
236.688;1420
236.750;1416
236.813;1423
236.875;1428
236.938;1418
237.000;1418
237.063;1420
237.125;1416
237.188;1420
237.250;1428
237.313;1416
237.375;1420
237.438;1413
237.500;1423
237.563;1428
237.625;1408
237.688;1413
237.750;1423
237.813;1418
237.875;1411
237.938;1423
238.000;1416
238.063;1428
238.125;1420
238.188;1420
238.250;1423
238.313;1420
238.375;1423
238.438;1413
238.500;1413
238.563;1423
238.625;1418
238.688;1416
238.750;1420
238.813;1420
238.875;1423
238.938;1411
239.000;1408
239.063;1418
239.125;1425
239.188;1428
239.250;1418
239.313;1423
239.375;1413
239.438;1420
239.500;1430
239.563;1425
239.625;1418
239.688;1413
239.750;1411
239.813;1420
239.875;1411
239.938;1423
240.000;1425
240.063;1418
240.125;1416
240.188;1420
240.250;1418
240.313;1420
240.375;1418
240.438;1423
240.500;1413
240.563;1413
240.625;1425
240.688;1418
240.750;1418
240.813;1425
240.875;1416
240.938;1425
241.000;1418
241.063;1420
241.125;1423
241.188;1428
241.250;1420
241.313;1420
241.375;1420
241.438;1420
241.500;1420
241.563;1420
241.625;1425
241.688;1418
241.750;1420
241.813;1430
241.875;1418
241.938;1428
242.000;1435
242.063;1423
242.125;1423
242.188;1425
242.250;1433
242.313;1425
242.375;1423
242.438;1420
242.500;1418
242.563;1428
242.625;1423
242.688;1423
242.750;1425
242.813;1416
242.875;1420
242.938;1428
243.000;1423
243.063;1425
243.125;1418
243.188;1420
243.250;1423
243.313;1418
243.375;1420
243.438;1428
243.500;1418
243.563;1428
243.625;1425
243.688;1423
243.750;1418
243.813;1428
243.875;1428
243.938;1425
244.000;1418
244.063;1416
244.125;1428
244.188;1425
244.250;1428
244.313;1416
244.375;1420
244.438;1433
244.500;1430
244.563;1428
244.625;1425
244.688;1423
244.750;1423
244.813;1435
244.875;1428
244.938;1433
245.000;1423
245.063;1425
245.125;1425
245.188;1420
245.250;1430
245.313;1425
245.375;1418
245.438;1430
245.500;1423
245.563;1423
245.625;1430
245.688;1423
245.750;1425
245.813;1420
245.875;1428
245.938;1428
246.000;1423
246.063;1425
246.125;1423
246.188;1433
246.250;1430
246.313;1430
246.375;1425
246.438;1418
246.500;1433
246.563;1428
246.625;1423
246.688;1425
246.750;1428
246.813;1428
246.875;1428
246.938;1428
247.000;1430
247.063;1425
247.125;1423
247.188;1418
247.250;1428
247.313;1428
247.375;1425
247.438;1430
247.500;1423
247.563;1430
247.625;1428
247.688;1423
247.750;1430
247.813;1430
247.875;1430
247.938;1428
248.000;1428
248.063;1430
248.125;1435
248.188;1428
248.250;1425
248.313;1430
248.375;1423
248.438;1430
248.500;1428
248.563;1428
248.625;1428
248.688;1428
248.750;1433
248.813;1423
248.875;1430
248.938;1423
249.000;1420
249.063;1435
249.125;1435
249.188;1428
249.250;1437
249.313;1435
249.375;1423
249.438;1433
249.500;1425
249.563;1428
249.625;1433
249.688;1420
249.750;1433
249.813;1430
249.875;1428
249.938;1440
250.000;1428
250.063;1440
250.125;1442
250.188;1437
250.250;1440
250.313;1433
250.375;1428
250.438;1437
250.500;1433
250.563;1425
250.625;1425
250.688;1423
250.750;1437
250.813;1435
250.875;1430
250.938;1425
251.000;1425
251.063;1433
251.125;1430
251.188;1433
251.250;1437
251.313;1425
251.375;1425
251.438;1423
251.500;1437
251.563;1423
251.625;1420
251.688;1420
251.750;1425
251.813;1435
251.875;1420
251.938;1430
252.000;1433
252.063;1425
252.125;1430
252.188;1425
252.250;1425
252.313;1428
252.375;1423
252.438;1440
252.500;1435
252.563;1423
252.625;1433
252.688;1435
252.750;1423
252.813;1433
252.875;1425
252.938;1428
253.000;1428
253.063;1433
253.125;1425
253.188;1430
253.250;1433
253.313;1428
253.375;1428
253.438;1433
253.500;1430
253.563;1433
253.625;1433
253.688;1430
253.750;1435
253.813;1433
253.875;1430
253.938;1428
254.000;1430
254.063;1428
254.125;1428
254.188;1420
254.250;1435
254.313;1430
254.375;1433
254.438;1428
254.500;1428
254.563;1433
254.625;1433
254.688;1433
254.750;1425
254.813;1420
254.875;1423
254.938;1433
255.000;1437
255.063;1433
255.125;1433
255.188;1440
255.250;1433
255.313;1428
255.375;1435
255.438;1435
255.500;1423
255.563;1425
255.625;1430
255.688;1420
255.750;1433
255.813;1437
255.875;1442
255.938;1437
256.000;1428
256.063;1423
256.125;1442
256.188;1425
256.250;1433
256.313;1433
256.375;1442
256.438;1428
256.500;1435
256.563;1440
256.625;1425
256.688;1433
256.750;1433
256.813;1440
256.875;1433
256.938;1423
257.000;1440
257.063;1437
257.125;1437
257.188;1430
257.250;1435
257.313;1435
257.375;1435
257.438;1440
257.500;1435
257.563;1440
257.625;1437
257.688;1435
257.750;1428
257.813;1440
257.875;1428
257.938;1442
258.000;1433
258.063;1447
258.125;1435
258.188;1435
258.250;1437
258.313;1435
258.375;1435
258.438;1430
258.500;1435
258.563;1435
258.625;1433
258.688;1433
258.750;1430
258.813;1437
258.875;1437
258.938;1418
259.000;1435
259.063;1433
259.125;1437
259.188;1437
259.250;1437
259.313;1435
259.375;1435
259.438;1430
259.500;1440
259.563;1440
259.625;1435
259.688;1442
259.750;1430
259.813;1428
259.875;1437
259.938;1428
260.000;1437
260.063;1437
260.125;1430
260.188;1433
260.250;1442
260.313;1440
260.375;1442
260.438;1437
260.500;1440
260.563;1435
260.625;1435
260.688;1442
260.750;1440
260.813;1440
260.875;1437
260.938;1433
261.000;1425
261.063;1440
261.125;1428
261.188;1428
261.250;1433
261.313;1435
261.375;1433
261.438;1425
261.500;1437
261.563;1435
261.625;1435
261.688;1435
261.750;1433
261.813;1440
261.875;1435
261.938;1437
262.000;1435
262.063;1433
262.125;1440
262.188;1433
262.250;1433
262.313;1435
262.375;1428
262.438;1437
262.500;1430
262.563;1437
262.625;1430
262.688;1425
262.750;1442
262.813;1433
262.875;1435
262.938;1445
263.000;1435
263.063;1430
263.125;1428
263.188;1430
263.250;1430
263.313;1437
263.375;1428
263.438;1440
263.500;1428
263.563;1435
263.625;1433
263.688;1430
263.750;1435
263.813;1435
263.875;1435
263.938;1440
264.000;1425
264.063;1437
264.125;1433
264.188;1435
264.250;1430
264.313;1437
264.375;1440
264.438;1423
264.500;1437
264.563;1433
264.625;1440
264.688;1450
264.750;1433
264.813;1430
264.875;1435
264.938;1437
265.000;1428
265.063;1433
265.125;1437
265.188;1433
265.250;1442
265.313;1433
265.375;1442
265.438;1440
265.500;1425
265.563;1445
265.625;1433
265.688;1430
265.750;1425
265.813;1437
265.875;1435
265.938;1437
266.000;1445
266.063;1440
266.125;1433
266.188;1442
266.250;1435
266.313;1433
266.375;1440
266.438;1433
266.500;1433
266.563;1433
266.625;1437
266.688;1428
266.750;1430
266.813;1435
266.875;1435
266.938;1437
267.000;1435
267.063;1442
267.125;1433
267.188;1433
267.250;1435
267.313;1435
267.375;1437
267.438;1437
267.500;1442
267.563;1437
267.625;1442
267.688;1437
267.750;1437
267.813;1430
267.875;1435
267.938;1440
268.000;1440
268.063;1435
268.125;1433
268.188;1435
268.250;1435
268.313;1442
268.375;1440
268.438;1435
268.500;1440
268.563;1442
268.625;1440
268.688;1437
268.750;1433
268.813;1442
268.875;1442
268.938;1447
269.000;1437
269.063;1435
269.125;1433
269.188;1433
269.250;1445
269.313;1447
269.375;1447
269.438;1440
269.500;1442
269.563;1435
269.625;1435
269.688;1435
269.750;1440
269.813;1435
269.875;1437
269.938;1435
270.000;1435
270.063;1440
270.125;1437
270.188;1447
270.250;1442
270.313;1437
270.375;1445
270.438;1437
270.500;1447
270.563;1445
270.625;1440
270.688;1433
270.750;1435
270.813;1450
270.875;1440
270.938;1430
271.000;1450
271.063;1435
271.125;1437
271.188;1442
271.250;1440
271.313;1445
271.375;1440
271.438;1435
271.500;1433
271.563;1435
271.625;1442
271.688;1435
271.750;1437
271.813;1440
271.875;1437
271.938;1435
272.000;1440
272.063;1437
272.125;1433
272.188;1440
272.250;1435
272.313;1447
272.375;1437
272.438;1437
272.500;1442
272.563;1433
272.625;1445
272.688;1442
272.750;1442
272.813;1445
272.875;1445
272.938;1440
273.000;1447
273.063;1433
273.125;1433
273.188;1442
273.250;1442
273.313;1430
273.375;1435
273.438;1440
273.500;1435
273.563;1437
273.625;1437
273.688;1440
273.750;1437
273.813;1440
273.875;1445
273.938;1435
274.000;1435
274.063;1435
274.125;1442
274.188;1440
274.250;1440
274.313;1440
274.375;1445
274.438;1428
274.500;1440
274.563;1433
274.625;1423
274.688;1435
274.750;1442
274.813;1437
274.875;1442
274.938;1435
275.000;1435
275.063;1445
275.125;1428
275.188;1433
275.250;1440
275.313;1430
275.375;1440
275.438;1437
275.500;1433
275.563;1445
275.625;1433
275.688;1440
275.750;1435
275.813;1437
275.875;1440
275.938;1440
276.000;1435
276.063;1440
276.125;1440
276.188;1437
276.250;1440
276.313;1442
276.375;1440
276.438;1442
276.500;1430
276.563;1428
276.625;1440
276.688;1430
276.750;1442
276.813;1440
276.875;1440
276.938;1437
277.000;1437
277.063;1440
277.125;1440
277.188;1433
277.250;1440
277.313;1445
277.375;1428
277.438;1433
277.500;1430
277.563;1440
277.625;1433
277.688;1428
277.750;1437
277.813;1428
277.875;1435
277.938;1435
278.000;1430
278.063;1440
278.125;1433
278.188;1428
278.250;1428
278.313;1433
278.375;1435
278.438;1433
278.500;1440
278.563;1447
278.625;1437
278.688;1437
278.750;1437
278.813;1435
278.875;1428
278.938;1440
279.000;1440
279.063;1433
279.125;1435
279.188;1442
279.250;1442
279.313;1435
279.375;1445
279.438;1440
279.500;1435
279.563;1433
279.625;1442
279.688;1435
279.750;1433
279.813;1445
279.875;1437
279.938;1445
280.000;1437
280.063;1442
280.125;1430
280.188;1447
280.250;1455
280.313;1442
280.375;1442
280.438;1435
280.500;1440
280.563;1437
280.625;1437
280.688;1442
280.750;1442
280.813;1447
280.875;1447
280.938;1435
281.000;1435
281.063;1445
281.125;1447
281.188;1437
281.250;1445
281.313;1440
281.375;1437
281.438;1437
281.500;1437
281.563;1442
281.625;1445
281.688;1435
281.750;1442
281.813;1442
281.875;1442
281.938;1442
282.000;1442
282.063;1433
282.125;1445
282.188;1450
282.250;1445
282.313;1440
282.375;1445
282.438;1442
282.500;1445
282.563;1447
282.625;1437
282.688;1445
282.750;1445
282.813;1435
282.875;1445
282.938;1437
283.000;1442
283.063;1450
283.125;1442
283.188;1450
283.250;1445
283.313;1433
283.375;1440
283.438;1440
283.500;1442
283.563;1435
283.625;1437
283.688;1442
283.750;1447
283.813;1447
283.875;1447
283.938;1447
284.000;1445
284.063;1442
284.125;1445
284.188;1437
284.250;1445
284.313;1445
284.375;1440
284.438;1445
284.500;1437
284.563;1445
284.625;1440
284.688;1445
284.750;1445
284.813;1442
284.875;1445
284.938;1433
285.000;1445
285.063;1435
285.125;1450
285.188;1440
285.250;1437
285.313;1440
285.375;1450
285.438;1445
285.500;1459
285.563;1450
285.625;1442
285.688;1435
285.750;1437
285.813;1447
285.875;1445
285.938;1442
286.000;1440
286.063;1442
286.125;1445
286.188;1435
286.250;1445
286.313;1442
286.375;1447
286.438;1435
286.500;1440
286.563;1435
286.625;1433
286.688;1447
286.750;1440
286.813;1447
286.875;1450
286.938;1437
287.000;1440
287.063;1440
287.125;1433
287.188;1435
287.250;1442
287.313;1433
287.375;1437
287.438;1445
287.500;1447
287.563;1445
287.625;1450
287.688;1452
287.750;1437
287.813;1437
287.875;1445
287.938;1450
288.000;1445
288.063;1445
288.125;1447
288.188;1440
288.250;1440
288.313;1435
288.375;1433
288.438;1435
288.500;1430
288.563;1445
288.625;1437
288.688;1430
288.750;1450
288.813;1435
288.875;1440
288.938;1433
289.000;1447
289.063;1437
289.125;1445
289.188;1435
289.250;1447
289.313;1437
289.375;1440
289.438;1445
289.500;1433
289.563;1435
289.625;1440
289.688;1435
289.750;1435
289.813;1445
289.875;1442
289.938;1437
290.000;1437
290.063;1445
290.125;1440
290.188;1440
290.250;1440
290.313;1437
290.375;1428
290.438;1437
290.500;1442
290.563;1440
290.625;1437
290.688;1445
290.750;1450
290.813;1445
290.875;1433
290.938;1445
291.000;1440
291.063;1447
291.125;1435
291.188;1445
291.250;1442
291.313;1445
291.375;1437
291.438;1435
291.500;1442
291.563;1440
291.625;1442
291.688;1445
291.750;1445
291.813;1437
291.875;1435
291.938;1440
292.000;1437
292.063;1437
292.125;1442
292.188;1440
292.250;1445
292.313;1437
292.375;1437
292.438;1440
292.500;1450
292.563;1442
292.625;1450
292.688;1447
292.750;1445
292.813;1447
292.875;1442
292.938;1445
293.000;1447
293.063;1450
293.125;1442
293.188;1442
293.250;1445
293.313;1450
293.375;1455
293.438;1452
293.500;1445
293.563;1450
293.625;1442
293.688;1452
293.750;1445
293.813;1445
293.875;1450
293.938;1447
294.000;1450
294.063;1452
294.125;1450
294.188;1452
294.250;1455
294.313;1452
294.375;1447
294.438;1452
294.500;1447
294.563;1450
294.625;1455
294.688;1452
294.750;1452
294.813;1452
294.875;1459
294.938;1457
295.000;1440
295.063;1459
295.125;1447
295.188;1442
295.250;1452
295.313;1457
295.375;1447
295.438;1455
295.500;1452
295.563;1450
295.625;1455
295.688;1447
295.750;1445
295.813;1457
295.875;1450
295.938;1455
296.000;1452
296.063;1447
296.125;1459
296.188;1452
296.250;1452
296.313;1452
296.375;1462
296.438;1452
296.500;1450
296.563;1447
296.625;1445
296.688;1447
296.750;1447
296.813;1455
296.875;1450
296.938;1445
297.000;1457
297.063;1452
297.125;1450
297.188;1467
297.250;1450
297.313;1455
297.375;1455
297.438;1455
297.500;1447
297.563;1447
297.625;1452
297.688;1442
297.750;1447
297.813;1450
297.875;1452
297.938;1445
298.000;1452
298.063;1462
298.125;1450
298.188;1455
298.250;1457
298.313;1452
298.375;1450
298.438;1457
298.500;1459
298.563;1450
298.625;1440
298.688;1455
298.750;1442
298.813;1459
298.875;1452
298.938;1450
299.000;1459
299.063;1450
299.125;1447
299.188;1440
299.250;1459
299.313;1452
299.375;1462
299.438;1442
299.500;1455
299.563;1455
299.625;1452
299.688;1445
299.750;1445
299.813;1447
299.875;1442
299.938;1452
300.000;1447
300.063;1445
300.125;1447
300.188;1455
300.250;1445
300.313;1445
300.375;1447
300.438;1440
300.500;1445
300.563;1450
300.625;1452
300.688;1447
300.750;1452
300.813;1447
300.875;1450
300.938;1445
301.000;1452
301.063;1450
301.125;1447
301.188;1447
301.250;1447
301.313;1445
301.375;1440
301.438;1447
301.500;1462
301.563;1442
301.625;1447
301.688;1445
301.750;1450
301.813;1452
301.875;1450
301.938;1457
302.000;1452
302.063;1437
302.125;1450
302.188;1445
302.250;1447
302.313;1455
302.375;1437
302.438;1445
302.500;1440
302.563;1447
302.625;1447
302.688;1445
302.750;1450
302.813;1447
302.875;1447
302.938;1455
303.000;1452
303.063;1452
303.125;1445
303.188;1445
303.250;1447
303.313;1445
303.375;1457
303.438;1450
303.500;1450
303.563;1442
303.625;1457
303.688;1452
303.750;1455
303.813;1452
303.875;1452
303.938;1459
304.000;1442
304.063;1457
304.125;1455
304.188;1455
304.250;1452
304.313;1452
304.375;1452
304.438;1459
304.500;1467
304.563;1462
304.625;1462
304.688;1457
304.750;1455
304.813;1457
304.875;1459
304.938;1457
305.000;1457
305.063;1452
305.125;1455
305.188;1452
305.250;1459
305.313;1457
305.375;1457
305.438;1469
305.500;1459
305.563;1457
305.625;1459
305.688;1457
305.750;1450
305.813;1457
305.875;1457
305.938;1455
306.000;1452
306.063;1452
306.125;1459
306.188;1455
306.250;1452
306.313;1457
306.375;1462
306.438;1457
306.500;1445
306.563;1459
306.625;1457
306.688;1462
306.750;1457
306.813;1457
306.875;1457
306.938;1462
307.000;1462
307.063;1452
307.125;1455
307.188;1462
307.250;1447
307.313;1464
307.375;1452
307.438;1464
307.500;1450
307.563;1455
307.625;1455
307.688;1457
307.750;1464
307.813;1462
307.875;1467
307.938;1455
308.000;1459
308.063;1459
308.125;1445
308.188;1459
308.250;1457
308.313;1464
308.375;1467
308.438;1452
308.500;1457
308.563;1452
308.625;1469
308.688;1457
308.750;1452
308.813;1457
308.875;1455
308.938;1464
309.000;1462
309.063;1455
309.125;1450
309.188;1455
309.250;1457
309.313;1459
309.375;1455
309.438;1467
309.500;1455
309.563;1464
309.625;1455
309.688;1462
309.750;1462
309.813;1452
309.875;1452
309.938;1455
310.000;1464
310.063;1450
310.125;1455
310.188;1457
310.250;1455
310.313;1452
310.375;1452
310.438;1455
310.500;1457
310.563;1457
310.625;1452
310.688;1462
310.750;1450
310.813;1452
310.875;1457
310.938;1452
311.000;1464
311.063;1455
311.125;1455
311.188;1462
311.250;1452
311.313;1462
311.375;1462
311.438;1447
311.500;1455
311.563;1452
311.625;1455
311.688;1457
311.750;1452
311.813;1457
311.875;1464
311.938;1455
312.000;1459
312.063;1447
312.125;1452
312.188;1455
312.250;1450
312.313;1452
312.375;1450
312.438;1452
312.500;1450
312.563;1457
312.625;1455
312.688;1452
312.750;1450
312.813;1450
312.875;1447
312.938;1459
313.000;1445
313.063;1452
313.125;1452
313.188;1445
313.250;1450
313.313;1447
313.375;1447
313.438;1450
313.500;1452
313.563;1450
313.625;1455
313.688;1450
313.750;1445
313.813;1452
313.875;1457
313.938;1455
314.000;1450
314.063;1452
314.125;1450
314.188;1457
314.250;1459
314.313;1452
314.375;1445
314.438;1462
314.500;1450
314.563;1445
314.625;1450
314.688;1447
314.750;1457
314.813;1445
314.875;1452
314.938;1462
315.000;1450
315.063;1462
315.125;1442
315.188;1459
315.250;1452
315.313;1459
315.375;1450
315.438;1452
315.500;1455
315.563;1450
315.625;1452
315.688;1452
315.750;1462
315.813;1452
315.875;1455
315.938;1457
316.000;1452
316.063;1455
316.125;1455
316.188;1455
316.250;1457
316.313;1452
316.375;1457
316.438;1452
316.500;1459
316.563;1457
316.625;1462
316.688;1450
316.750;1455
316.813;1452
316.875;1462
316.938;1462
317.000;1462
317.063;1452
317.125;1457
317.188;1462
317.250;1457
317.313;1455
317.375;1452
317.438;1462
317.500;1459
317.563;1457
317.625;1450
317.688;1457
317.750;1452
317.813;1464
317.875;1455
317.938;1452
318.000;1462
318.063;1459
318.125;1455
318.188;1469
318.250;1455
318.313;1455
318.375;1452
318.438;1450
318.500;1457
318.563;1469
318.625;1462
318.688;1464
318.750;1469
318.813;1462
318.875;1459
318.938;1464
319.000;1452
319.063;1445
319.125;1464
319.188;1459
319.250;1455
319.313;1452
319.375;1462
319.438;1457
319.500;1459
319.563;1474
319.625;1452
319.688;1462
319.750;1459
319.813;1462
319.875;1472
319.938;1467
320.000;1459
320.063;1459
320.125;1467
320.188;1452
320.250;1455
320.313;1457
320.375;1464
320.438;1455
320.500;1467
320.563;1467
320.625;1464
320.688;1455
320.750;1459
320.813;1469
320.875;1459
320.938;1457
321.000;1459
321.063;1462
321.125;1462
321.188;1459
321.250;1462
321.313;1452
321.375;1455
321.438;1462
321.500;1459
321.563;1452
321.625;1462
321.688;1467
321.750;1462
321.813;1462
321.875;1464
321.938;1457
322.000;1450
322.063;1459
322.125;1462
322.188;1464
322.250;1455
322.313;1459
322.375;1455
322.438;1459
322.500;1464
322.563;1455
322.625;1459
322.688;1467
322.750;1457
322.813;1462
322.875;1464
322.938;1455
323.000;1452
323.063;1457
323.125;1459
323.188;1457
323.250;1459
323.313;1457
323.375;1442
323.438;1457
323.500;1457
323.563;1455
323.625;1452
323.688;1457
323.750;1462
323.813;1445
323.875;1457
323.938;1459
324.000;1452
324.063;1452
324.125;1459
324.188;1457
324.250;1452
324.313;1459
324.375;1457
324.438;1455
324.500;1452
324.563;1450
324.625;1455
324.688;1455
324.750;1442
324.813;1447
324.875;1457
324.938;1452
325.000;1440
325.063;1455
325.125;1450
325.188;1459
325.250;1450
325.313;1455
325.375;1447
325.438;1452
325.500;1452
325.563;1450
325.625;1452
325.688;1452
325.750;1457
325.813;1455
325.875;1450
325.938;1459
326.000;1455
326.063;1455
326.125;1447
326.188;1450
326.250;1457
326.313;1450
326.375;1450
326.438;1450
326.500;1445
326.563;1462
326.625;1457
326.688;1450
326.750;1450
326.813;1450
326.875;1462
326.938;1457
327.000;1457
327.063;1455
327.125;1462
327.188;1462
327.250;1455
327.313;1455
327.375;1452
327.438;1442
327.500;1459
327.563;1452
327.625;1452
327.688;1450
327.750;1459
327.813;1452
327.875;1462
327.938;1452
328.000;1462
328.063;1455
328.125;1452
328.188;1464
328.250;1450
328.313;1459
328.375;1452
328.438;1455
328.500;1462
328.563;1450
328.625;1455
328.688;1452
328.750;1452
328.813;1455
328.875;1459
328.938;1462
329.000;1457
329.063;1457
329.125;1455
329.188;1459
329.250;1450
329.313;1459
329.375;1464
329.438;1459
329.500;1455
329.563;1462
329.625;1455
329.688;1457
329.750;1455
329.813;1462
329.875;1459
329.938;1462
330.000;1462
330.063;1467
330.125;1462
330.188;1462
330.250;1462
330.313;1445
330.375;1462
330.438;1464
330.500;1459
330.563;1467
330.625;1462
330.688;1459
330.750;1459
330.813;1459
330.875;1462
330.938;1459
331.000;1462
331.063;1464
331.125;1457
331.188;1467
331.250;1452
331.313;1462
331.375;1457
331.438;1467
331.500;1462
331.563;1459
331.625;1464
331.688;1462
331.750;1467
331.813;1459
331.875;1469
331.938;1459
332.000;1462
332.063;1462
332.125;1459
332.188;1464
332.250;1462
332.313;1464
332.375;1462
332.438;1462
332.500;1459
332.563;1467
332.625;1459
332.688;1452
332.750;1462
332.813;1459
332.875;1455
332.938;1459
333.000;1472
333.063;1467
333.125;1459
333.188;1457
333.250;1467
333.313;1459
333.375;1472
333.438;1459
333.500;1464
333.563;1459
333.625;1459
333.688;1462
333.750;1467
333.813;1467
333.875;1472
333.938;1472
334.000;1464
334.063;1474
334.125;1457
334.188;1459
334.250;1455
334.313;1457
334.375;1459
334.438;1467
334.500;1464
334.563;1457
334.625;1455
334.688;1457
334.750;1450
334.813;1455
334.875;1457
334.938;1462
335.000;1459
335.063;1455
335.125;1452
335.188;1457
335.250;1462
335.313;1450
335.375;1455
335.438;1459
335.500;1467
335.563;1464
335.625;1450
335.688;1459
335.750;1450
335.813;1452
335.875;1455
335.938;1457
336.000;1455
336.063;1452
336.125;1459
336.188;1459
336.250;1455
336.313;1462
336.375;1459
336.438;1452
336.500;1442
336.563;1442
336.625;1462
336.688;1472
336.750;1452
336.813;1455
336.875;1455
336.938;1450
337.000;1462
337.063;1462
337.125;1459
337.188;1455
337.250;1452
337.313;1459
337.375;1459
337.438;1447
337.500;1457
337.563;1457
337.625;1450
337.688;1459
337.750;1452
337.813;1452
337.875;1455
337.938;1452
338.000;1445
338.063;1450
338.125;1447
338.188;1452
338.250;1457
338.313;1457
338.375;1452
338.438;1455
338.500;1452
338.563;1464
338.625;1452
338.688;1450
338.750;1459
338.813;1457
338.875;1464
338.938;1459
339.000;1452
339.063;1452
339.125;1459
339.188;1452
339.250;1455
339.313;1455
339.375;1445
339.438;1459
339.500;1455
339.563;1450
339.625;1459
339.688;1455
339.750;1455
339.813;1459
339.875;1457
339.938;1452
340.000;1462
340.063;1464
340.125;1450
340.188;1457
340.250;1457
340.313;1457
340.375;1455
340.438;1447
340.500;1457
340.563;1450
340.625;1450
340.688;1457
340.750;1455
340.813;1457
340.875;1459
340.938;1462
341.000;1447
341.063;1457
341.125;1455
341.188;1462
341.250;1462
341.313;1455
341.375;1459
341.438;1464
341.500;1467
341.563;1452
341.625;1459
341.688;1457
341.750;1457
341.813;1467
341.875;1464
341.938;1457
342.000;1462
342.063;1462
342.125;1457
342.188;1462
342.250;1462
342.313;1452
342.375;1464
342.438;1457
342.500;1457
342.563;1464
342.625;1462
342.688;1467
342.750;1462
342.813;1455
342.875;1462
342.938;1467
343.000;1467
343.063;1464
343.125;1459
343.188;1464
343.250;1467
343.313;1462
343.375;1459
343.438;1462
343.500;1462
343.563;1459
343.625;1462
343.688;1462
343.750;1459
343.813;1464
343.875;1472
343.938;1469
344.000;1469
344.063;1459
344.125;1462
344.188;1474
344.250;1462
344.313;1462
344.375;1452
344.438;1459
344.500;1464
344.563;1467
344.625;1462
344.688;1467
344.750;1457
344.813;1467
344.875;1457
344.938;1457
345.000;1457
345.063;1457
345.125;1469
345.188;1462
345.250;1457
345.313;1472
345.375;1462
345.438;1459
345.500;1467
345.563;1467
345.625;1464
345.688;1467
345.750;1467
345.813;1455
345.875;1464
345.938;1457
346.000;1462
346.063;1459
346.125;1457
346.188;1467
346.250;1462
346.313;1467
346.375;1462
346.438;1467
346.500;1464
346.563;1464
346.625;1459
346.688;1462
346.750;1462
346.813;1467
346.875;1462
346.938;1467
347.000;1467
347.063;1462
347.125;1457
347.188;1459
347.250;1462
347.313;1452
347.375;1464
347.438;1474
347.500;1469
347.563;1469
347.625;1464
347.688;1462
347.750;1452
347.813;1462
347.875;1457
347.938;1462
348.000;1455
348.063;1462
348.125;1467
348.188;1462
348.250;1457
348.313;1457
348.375;1464
348.438;1459
348.500;1447
348.563;1459
348.625;1452
348.688;1450
348.750;1462
348.813;1455
348.875;1467
348.938;1457
349.000;1447
349.063;1457
349.125;1455
349.188;1462
349.250;1450
349.313;1455
349.375;1457
349.438;1457
349.500;1445
349.563;1452
349.625;1455
349.688;1455
349.750;1462
349.813;1459
349.875;1455
349.938;1459
350.000;1469
350.063;1464
350.125;1462
350.188;1464
350.250;1457
350.313;1457
350.375;1467
350.438;1455
350.500;1452
350.563;1452
350.625;1459
350.688;1462
350.750;1467
350.813;1455
350.875;1450
350.938;1459
351.000;1455
351.063;1450
351.125;1464
351.188;1459
351.250;1447
351.313;1452
351.375;1457
351.438;1455
351.500;1445
351.563;1457
351.625;1445
351.688;1452
351.750;1452
351.813;1455
351.875;1459
351.938;1455
352.000;1459
352.063;1467
352.125;1452
352.188;1455
352.250;1455
352.313;1455
352.375;1455
352.438;1464
352.500;1467
352.563;1459
352.625;1464
352.688;1457
352.750;1457
352.813;1459
352.875;1459
352.938;1457
353.000;1457
353.063;1459
353.125;1457
353.188;1464
353.250;1464
353.313;1457
353.375;1459
353.438;1469
353.500;1459
353.563;1464
353.625;1462
353.688;1464
353.750;1462
353.813;1462
353.875;1457
353.938;1464
354.000;1469
354.063;1464
354.125;1457
354.188;1459
354.250;1462
354.313;1467
354.375;1457
354.438;1464
354.500;1464
354.563;1464
354.625;1467
354.688;1464
354.750;1464
354.813;1462
354.875;1469
354.938;1462
355.000;1469
355.063;1457
355.125;1462
355.188;1457
355.250;1459
355.313;1469
355.375;1464
355.438;1459
355.500;1464
355.563;1459
355.625;1459
355.688;1462
355.750;1459
355.813;1457
355.875;1467
355.938;1455
356.000;1467
356.063;1462
356.125;1464
356.188;1469
356.250;1472
356.313;1472
356.375;1459
356.438;1464
356.500;1467
356.563;1462
356.625;1464
356.688;1462
356.750;1462
356.813;1472
356.875;1462
356.938;1459
357.000;1472
357.063;1472
357.125;1464
357.188;1464
357.250;1459
357.313;1452
357.375;1462
357.438;1467
357.500;1462
357.563;1469
357.625;1469
357.688;1469
357.750;1462
357.813;1464
357.875;1464
357.938;1469
358.000;1467
358.063;1462
358.125;1462
358.188;1462
358.250;1469
358.313;1474
358.375;1469
358.438;1467
358.500;1455
358.563;1457
358.625;1467
358.688;1459
358.750;1462
358.813;1459
358.875;1469
358.938;1462
359.000;1472
359.063;1464
359.125;1462
359.188;1462
359.250;1459
359.313;1464
359.375;1457
359.438;1457
359.500;1462
359.563;1464
359.625;1457
359.688;1459
359.750;1459
359.813;1452
359.875;1455
359.938;1462
360.000;1459
360.063;1442
360.125;1459
360.188;1462
360.250;1467
360.313;1464
360.375;1459
360.438;1457
360.500;1467
360.563;1459
360.625;1452
360.688;1450
360.750;1459
360.813;1457
360.875;1472
360.938;1459
361.000;1459
361.063;1450
361.125;1452
361.188;1445
361.250;1455
361.313;1455
361.375;1462
361.438;1462
361.500;1455
361.563;1450
361.625;1464
361.688;1445
361.750;1447
361.813;1469
361.875;1455
361.938;1452
362.000;1462
362.063;1457
362.125;1457
362.188;1462
362.250;1457
362.313;1452
362.375;1455
362.438;1459
362.500;1442
362.563;1452
362.625;1452
362.688;1455
362.750;1459
362.813;1450
362.875;1459
362.938;1455
363.000;1447
363.063;1452
363.125;1452
363.188;1450
363.250;1457
363.313;1462
363.375;1464
363.438;1450
363.500;1452
363.563;1459
363.625;1452
363.688;1450
363.750;1450
363.813;1462
363.875;1452
363.938;1459
364.000;1455
364.063;1462
364.125;1459
364.188;1462
364.250;1459
364.313;1457
364.375;1452
364.438;1452
364.500;1459
364.563;1462
364.625;1457
364.688;1459
364.750;1455
364.813;1457
364.875;1450
364.938;1457
365.000;1457
365.063;1452
365.125;1452
365.188;1457
365.250;1447
365.313;1462
365.375;1464
365.438;1457
365.500;1467
365.563;1452
365.625;1452
365.688;1464
365.750;1459
365.813;1459
365.875;1450
365.938;1459
366.000;1464
366.063;1455
366.125;1462
366.188;1452
366.250;1457
366.313;1464
366.375;1464
366.438;1457
366.500;1455
366.563;1455
366.625;1464
366.688;1457
366.750;1467
366.813;1450
366.875;1459
366.938;1459
367.000;1467
367.063;1462
367.125;1459
367.188;1464
367.250;1469
367.313;1462
367.375;1469
367.438;1462
367.500;1455
367.563;1459
367.625;1464
367.688;1459
367.750;1462
367.813;1474
367.875;1459
367.938;1464
368.000;1455
368.063;1464
368.125;1464
368.188;1469
368.250;1464
368.313;1467
368.375;1462
368.438;1474
368.500;1464
368.563;1462
368.625;1464
368.688;1457
368.750;1459
368.813;1469
368.875;1464
368.938;1459
369.000;1472
369.063;1459
369.125;1457
369.188;1462
369.250;1462
369.313;1464
369.375;1472
369.438;1462
369.500;1464
369.563;1462
369.625;1457
369.688;1469
369.750;1455
369.813;1462
369.875;1459
369.938;1462
370.000;1462
370.063;1457
370.125;1467
370.188;1467
370.250;1452
370.313;1459
370.375;1462
370.438;1462
370.500;1459
370.563;1459
370.625;1467
370.688;1459
370.750;1457
370.813;1467
370.875;1455
370.938;1467
371.000;1467
371.063;1452
371.125;1464
371.188;1464
371.250;1455
371.313;1455
371.375;1455
371.438;1457
371.500;1459
371.563;1452
371.625;1462
371.688;1457
371.750;1452
371.813;1447
371.875;1455
371.938;1459
372.000;1464
372.063;1455
372.125;1464
372.188;1459
372.250;1459
372.313;1452
372.375;1459
372.438;1447
372.500;1459
372.563;1450
372.625;1455
372.688;1455
372.750;1452
372.813;1455
372.875;1457
372.938;1455
373.000;1452
373.063;1452
373.125;1455
373.188;1452
373.250;1447
373.313;1452
373.375;1455
373.438;1457
373.500;1462
373.563;1457
373.625;1459
373.688;1455
373.750;1455
373.813;1445
373.875;1459
373.938;1462
374.000;1447
374.063;1455
374.125;1455
374.188;1455
374.250;1455
374.313;1457
374.375;1455
374.438;1459
374.500;1462
374.563;1447
374.625;1452
374.688;1452
374.750;1447
374.813;1459
374.875;1447
374.938;1447
375.000;1447
375.063;1455
375.125;1450
375.188;1450
375.250;1445
375.313;1455
375.375;1462
375.438;1455
375.500;1450
375.563;1457
375.625;1440
375.688;1457
375.750;1462
375.813;1457
375.875;1440
375.938;1445
376.000;1459
376.063;1455
376.125;1469
376.188;1462
376.250;1447
376.313;1459
376.375;1455
376.438;1459
376.500;1455
376.563;1450
376.625;1450
376.688;1445
376.750;1462
376.813;1459
376.875;1450
376.938;1452
377.000;1462
377.063;1457
377.125;1452
377.188;1457
377.250;1455
377.313;1452
377.375;1455
377.438;1450
377.500;1457
377.563;1462
377.625;1455
377.688;1455
377.750;1450
377.813;1462
377.875;1452
377.938;1447
378.000;1455
378.063;1455
378.125;1457
378.188;1457
378.250;1462
378.313;1459
378.375;1452
378.438;1457
378.500;1455
378.563;1457
378.625;1455
378.688;1457
378.750;1464
378.813;1455
378.875;1452
378.938;1450
379.000;1469
379.063;1464
379.125;1457
379.188;1455
379.250;1457
379.313;1457
379.375;1452
379.438;1459
379.500;1464
379.563;1457
379.625;1459
379.688;1462
379.750;1462
379.813;1459
379.875;1457
379.938;1455
380.000;1459
380.063;1459
380.125;1457
380.188;1464
380.250;1447
380.313;1462
380.375;1464
380.438;1457
380.500;1464
380.563;1455
380.625;1462
380.688;1459
380.750;1455
380.813;1464
380.875;1464
380.938;1469
381.000;1452
381.063;1464
381.125;1457
381.188;1462
381.250;1462
381.313;1469
381.375;1469
381.438;1464
381.500;1452
381.563;1450
381.625;1457
381.688;1459
381.750;1464
381.813;1457
381.875;1452
381.938;1457
382.000;1462
382.063;1455
382.125;1459
382.188;1459
382.250;1467
382.313;1464
382.375;1459
382.438;1464
382.500;1455
382.563;1459
382.625;1459
382.688;1455
382.750;1467
382.813;1459
382.875;1462
382.938;1457
383.000;1464
383.063;1462
383.125;1457
383.188;1464
383.250;1469
383.313;1455
383.375;1464
383.438;1459
383.500;1457
383.563;1455
383.625;1462
383.688;1452
383.750;1447
383.813;1459
383.875;1459
383.938;1455
384.000;1462
384.063;1464
384.125;1464
384.188;1457
384.250;1457
384.313;1457
384.375;1464
384.438;1452
384.500;1457
384.563;1462
384.625;1455
384.688;1447
384.750;1447
384.813;1445
384.875;1450
384.938;1452
385.000;1455
385.063;1450
385.125;1442
385.188;1452
385.250;1455
385.313;1440
385.375;1445
385.438;1455
385.500;1445
385.563;1450
385.625;1450
385.688;1450
385.750;1450
385.813;1447
385.875;1447
385.938;1450
386.000;1445
386.063;1452
386.125;1447
386.188;1452
386.250;1447
386.313;1447
386.375;1452
386.438;1455
386.500;1457
386.563;1445
386.625;1442
386.688;1442
386.750;1450
386.813;1452
386.875;1442
386.938;1455
387.000;1452
387.063;1445
387.125;1455
387.188;1450
387.250;1452
387.313;1459
387.375;1447
387.438;1450
387.500;1455
387.563;1459
387.625;1455
387.688;1457
387.750;1455
387.813;1450
387.875;1452
387.938;1452
388.000;1445
388.063;1457
388.125;1445
388.188;1452
388.250;1457
388.313;1450
388.375;1452
388.438;1450
388.500;1450
388.563;1442
388.625;1452
388.688;1445
388.750;1457
388.813;1455
388.875;1450
388.938;1455
389.000;1447
389.063;1455
389.125;1455
389.188;1455
389.250;1455
389.313;1457
389.375;1455
389.438;1445
389.500;1450
389.563;1450
389.625;1462
389.688;1450
389.750;1464
389.813;1455
389.875;1455
389.938;1459
390.000;1452
390.063;1450
390.125;1455
390.188;1447
390.250;1457
390.313;1462
390.375;1457
390.438;1450
390.500;1457
390.563;1455
390.625;1457
390.688;1457
390.750;1462
390.813;1455
390.875;1462
390.938;1450
391.000;1455
391.063;1462
391.125;1464
391.188;1464
391.250;1455
391.313;1450
391.375;1455
391.438;1450
391.500;1467
391.563;1455
391.625;1445
391.688;1447
391.750;1452
391.813;1457
391.875;1455
391.938;1455
392.000;1459
392.063;1455
392.125;1455
392.188;1457
392.250;1455
392.313;1457
392.375;1462
392.438;1462
392.500;1464
392.563;1457
392.625;1455
392.688;1452
392.750;1464
392.813;1462
392.875;1464
392.938;1464
393.000;1459
393.063;1467
393.125;1455
393.188;1455
393.250;1457
393.313;1467
393.375;1462
393.438;1462
393.500;1450
393.563;1457
393.625;1464
393.688;1462
393.750;1457
393.813;1459
393.875;1462
393.938;1455
394.000;1467
394.063;1462
394.125;1462
394.188;1459
394.250;1462
394.313;1462
394.375;1467
394.438;1455
394.500;1459
394.563;1455
394.625;1455
394.688;1455
394.750;1462
394.813;1464
394.875;1450
394.938;1462
395.000;1452
395.063;1455
395.125;1455
395.188;1457
395.250;1455
395.313;1457
395.375;1450
395.438;1452
395.500;1464
395.563;1450
395.625;1455
395.688;1457
395.750;1452
395.813;1450
395.875;1462
395.938;1455
396.000;1450
396.063;1445
396.125;1452
396.188;1442
396.250;1445
396.313;1437
396.375;1442
396.438;1455
396.500;1437
396.563;1452
396.625;1455
396.688;1452
396.750;1450
396.813;1440
396.875;1442
396.938;1445
397.000;1452
397.063;1445
397.125;1450
397.188;1452
397.250;1442
397.313;1445
397.375;1450
397.438;1442
397.500;1437
397.563;1442
397.625;1447
397.688;1445
397.750;1452
397.813;1452
397.875;1450
397.938;1445
398.000;1447
398.063;1452
398.125;1452
398.188;1445
398.250;1447
398.313;1445
398.375;1442
398.438;1442
398.500;1447
398.563;1440
398.625;1442
398.688;1445
398.750;1445
398.813;1447
398.875;1452
398.938;1452
399.000;1445
399.063;1452
399.125;1447
399.188;1445
399.250;1447
399.313;1442
399.375;1452
399.438;1440
399.500;1447
399.563;1445
399.625;1445
399.688;1447
399.750;1447
399.813;1442
399.875;1452
399.938;1452
400.000;1447
400.063;1462
400.125;1450
400.188;1450
400.250;1452
400.313;1445
400.375;1452
400.438;1450
400.500;1445
400.563;1450
400.625;1447
400.688;1452
400.750;1437
400.813;1442
400.875;1445
400.938;1452
401.000;1450
401.063;1440
401.125;1447
401.188;1455
401.250;1445
401.313;1442
401.375;1445
401.438;1437
401.500;1452
401.563;1450
401.625;1452
401.688;1450
401.750;1450
401.813;1450
401.875;1445
401.938;1457
402.000;1455
402.063;1445
402.125;1455
402.188;1450
402.250;1455
402.313;1450
402.375;1450
402.438;1455
402.500;1452
402.563;1452
402.625;1457
402.688;1450
402.750;1459
402.813;1450
402.875;1442
402.938;1447
403.000;1450
403.063;1450
403.125;1452
403.188;1464
403.250;1459
403.313;1452
403.375;1457
403.438;1457
403.500;1452
403.563;1459
403.625;1457
403.688;1445
403.750;1452
403.813;1457
403.875;1464
403.938;1455
404.000;1459
404.063;1467
404.125;1455
404.188;1452
404.250;1459
404.313;1457
404.375;1442
404.438;1455
404.500;1442
404.563;1457
404.625;1455
404.688;1464
404.750;1467
404.813;1457
404.875;1457
404.938;1455
405.000;1459
405.063;1464
405.125;1459
405.188;1459
405.250;1457
405.313;1455
405.375;1455
405.438;1462
405.500;1457
405.563;1450
405.625;1457
405.688;1457
405.750;1455
405.813;1462
405.875;1459
405.938;1472
406.000;1457
406.063;1459
406.125;1467
406.188;1462
406.250;1457
406.313;1462
406.375;1452
406.438;1464
406.500;1452
406.563;1452
406.625;1455
406.688;1452
406.750;1450
406.813;1452
406.875;1445
406.938;1459
407.000;1457
407.063;1459
407.125;1452
407.188;1447
407.250;1447
407.313;1452
407.375;1455
407.438;1450
407.500;1452
407.563;1457
407.625;1459
407.688;1447
407.750;1452
407.813;1455
407.875;1450
407.938;1442
408.000;1459
408.063;1457
408.125;1457
408.188;1452
408.250;1459
408.313;1447
408.375;1459
408.438;1457
408.500;1445
408.563;1445
408.625;1445
408.688;1455
408.750;1452
408.813;1445
408.875;1437
408.938;1447
409.000;1447
409.063;1445
409.125;1445
409.188;1445
409.250;1447
409.313;1442
409.375;1447
409.438;1428
409.500;1445
409.563;1445
409.625;1455
409.688;1442
409.750;1442
409.813;1440
409.875;1445
409.938;1450
410.000;1437
410.063;1442
410.125;1440
410.188;1440
410.250;1442
410.313;1442
410.375;1440
410.438;1442
410.500;1440
410.563;1447
410.625;1433
410.688;1450
410.750;1445
410.813;1442
410.875;1440
410.938;1442
411.000;1442
411.063;1440
411.125;1442
411.188;1447
411.250;1447
411.313;1445
411.375;1437
411.438;1450
411.500;1440
411.563;1440
411.625;1447
411.688;1455
411.750;1437
411.813;1442
411.875;1455
411.938;1442
412.000;1450
412.063;1452
412.125;1452
412.188;1450
412.250;1442
412.313;1437
412.375;1452
412.438;1447
412.500;1447
412.563;1445
412.625;1442
412.688;1452
412.750;1442
412.813;1459
412.875;1447
412.938;1447
413.000;1447
413.063;1445
413.125;1445
413.188;1442
413.250;1440
413.313;1442
413.375;1440
413.438;1440
413.500;1445
413.563;1442
413.625;1437
413.688;1447
413.750;1442
413.813;1450
413.875;1445
413.938;1445
414.000;1452
414.063;1447
414.125;1447
414.188;1445
414.250;1447
414.313;1442
414.375;1455
414.438;1445
414.500;1450
414.563;1450
414.625;1452
414.688;1459
414.750;1447
414.813;1447
414.875;1440
414.938;1445
415.000;1452
415.063;1450
415.125;1442
415.188;1452
415.250;1459
415.313;1452
415.375;1452
415.438;1452
415.500;1437
415.563;1442
415.625;1452
415.688;1445
415.750;1447
415.813;1445
415.875;1447
415.938;1447
416.000;1447
416.063;1450
416.125;1455
416.188;1457
416.250;1459
416.313;1447
416.375;1452
416.438;1440
416.500;1452
416.563;1445
416.625;1455
416.688;1450
416.750;1457
416.813;1447
416.875;1440
416.938;1452
417.000;1450
417.063;1452
417.125;1450
417.188;1445
417.250;1447
417.313;1455
417.375;1445
417.438;1457
417.500;1459
417.563;1447
417.625;1452
417.688;1450
417.750;1455
417.813;1462
417.875;1450
417.938;1442
418.000;1450
418.063;1447
418.125;1452
418.188;1450
418.250;1452
418.313;1445
418.375;1450
418.438;1442
418.500;1455
418.563;1452
418.625;1442
418.688;1442
418.750;1452
418.813;1445
418.875;1447
418.938;1452
419.000;1450
419.063;1445
419.125;1455
419.188;1450
419.250;1440
419.313;1452
419.375;1450
419.438;1450
419.500;1442
419.563;1445
419.625;1437
419.688;1437
419.750;1447
419.813;1445
419.875;1435
419.938;1450
420.000;1452
420.063;1433
420.125;1437
420.188;1437
420.250;1447
420.313;1440
420.375;1445
420.438;1440
420.500;1440
420.563;1447
420.625;1450
420.688;1440
420.750;1440
420.813;1437
420.875;1435
420.938;1437
421.000;1442
421.063;1437
421.125;1437
421.188;1437
421.250;1440
421.313;1435
421.375;1437
421.438;1442
421.500;1435
421.563;1445
421.625;1437
421.688;1447
421.750;1440
421.813;1442
421.875;1435
421.938;1433
422.000;1445
422.063;1435
422.125;1445
422.188;1435
422.250;1430
422.313;1442
422.375;1435
422.438;1442
422.500;1430
422.563;1437
422.625;1428
422.688;1420
422.750;1440
422.813;1433
422.875;1425
422.938;1437
423.000;1442
423.063;1425
423.125;1428
423.188;1435
423.250;1435
423.313;1433
423.375;1440
423.438;1435
423.500;1437
423.563;1430
423.625;1435
423.688;1440
423.750;1440
423.813;1430
423.875;1435
423.938;1435
424.000;1445
424.063;1437
424.125;1435
424.188;1437
424.250;1428
424.313;1425
424.375;1440
424.438;1433
424.500;1440
424.563;1433
424.625;1433
424.688;1433
424.750;1428
424.813;1435
424.875;1433
424.938;1430
425.000;1435
425.063;1442
425.125;1442
425.188;1435
425.250;1433
425.313;1440
425.375;1433
425.438;1430
425.500;1435
425.563;1440
425.625;1435
425.688;1435
425.750;1440
425.813;1435
425.875;1442
425.938;1445
426.000;1447
426.063;1440
426.125;1435
426.188;1435
426.250;1445
426.313;1440
426.375;1445
426.438;1435
426.500;1433
426.563;1442
426.625;1440
426.688;1445
426.750;1440
426.813;1445
426.875;1437
426.938;1437
427.000;1445
427.063;1437
427.125;1437
427.188;1437
427.250;1440
427.313;1442
427.375;1440
427.438;1445
427.500;1445
427.563;1435
427.625;1440
427.688;1440
427.750;1440
427.813;1442
427.875;1437
427.938;1447
428.000;1433
428.063;1447
428.125;1440
428.188;1447
428.250;1437
428.313;1435
428.375;1445
428.438;1442
428.500;1445
428.563;1445
428.625;1437
428.688;1450
428.750;1437
428.813;1455
428.875;1437
428.938;1452
429.000;1450
429.063;1447
429.125;1437
429.188;1433
429.250;1440
429.313;1442
429.375;1442
429.438;1437
429.500;1440
429.563;1442
429.625;1442
429.688;1442
429.750;1452
429.813;1437
429.875;1450
429.938;1437
430.000;1437
430.063;1428
430.125;1442
430.188;1440
430.250;1440
430.313;1435
430.375;1440
430.438;1445
430.500;1433
430.563;1452
430.625;1433
430.688;1445
430.750;1445
430.813;1437
430.875;1440
430.938;1442
431.000;1442
431.063;1440
431.125;1447
431.188;1437
431.250;1430
431.313;1442
431.375;1437
431.438;1437
431.500;1440
431.563;1433
431.625;1440
431.688;1442
431.750;1435
431.813;1433
431.875;1442
431.938;1435
432.000;1433
432.063;1445
432.125;1440
432.188;1442
432.250;1440
432.313;1442
432.375;1433
432.438;1437
432.500;1435
432.563;1433
432.625;1437
432.688;1435
432.750;1430
432.813;1433
432.875;1435
432.938;1428
433.000;1442
433.063;1437
433.125;1430
433.188;1442
433.250;1440
433.313;1430
433.375;1420
433.438;1435
433.500;1440
433.563;1442
433.625;1440
433.688;1433
433.750;1428
433.813;1433
433.875;1428
433.938;1433
434.000;1430
434.063;1425
434.125;1433
434.188;1450
434.250;1420
434.313;1425
434.375;1435
434.438;1433
434.500;1428
434.563;1425
434.625;1430
434.688;1430
434.750;1440
434.813;1435
434.875;1428
434.938;1425
435.000;1428
435.063;1437
435.125;1433
435.188;1435
435.250;1435
435.313;1435
435.375;1428
435.438;1430
435.500;1425
435.563;1428
435.625;1428
435.688;1435
435.750;1428
435.813;1430
435.875;1418
435.938;1428
436.000;1428
436.063;1437
436.125;1428
436.188;1425
436.250;1428
436.313;1423
436.375;1435
436.438;1433
436.500;1418
436.563;1428
436.625;1428
436.688;1428
436.750;1430
436.813;1423
436.875;1428
436.938;1425
437.000;1430
437.063;1430
437.125;1430
437.188;1430
437.250;1430
437.313;1442
437.375;1433
437.438;1428
437.500;1435
437.563;1433
437.625;1433
437.688;1437
437.750;1445
437.813;1423
437.875;1430
437.938;1433
438.000;1423
438.063;1430
438.125;1435
438.188;1430
438.250;1430
438.313;1430
438.375;1425
438.438;1430
438.500;1425
438.563;1437
438.625;1428
438.688;1437
438.750;1435
438.813;1430
438.875;1435
438.938;1433
439.000;1433
439.063;1425
439.125;1430
439.188;1435
439.250;1428
439.313;1442
439.375;1430
439.438;1435
439.500;1425
439.563;1437
439.625;1435
439.688;1440
439.750;1433
439.813;1433
439.875;1440
439.938;1447
440.000;1435
440.063;1440
440.125;1430
440.188;1440
440.250;1428
440.313;1437
440.375;1433
440.438;1440
440.500;1442
440.563;1433
440.625;1435
440.688;1430
440.750;1435
440.813;1445
440.875;1435
440.938;1437
441.000;1437
441.063;1437
441.125;1435
441.188;1440
441.250;1437
441.313;1435
441.375;1435
441.438;1445
441.500;1435
441.563;1435
441.625;1440
441.688;1437
441.750;1437
441.813;1445
441.875;1445
441.938;1445
442.000;1440
442.063;1435
442.125;1433
442.188;1440
442.250;1430
442.313;1435
442.375;1435
442.438;1433
442.500;1437
442.563;1437
442.625;1430
442.688;1437
442.750;1440
442.813;1435
442.875;1437
442.938;1433
443.000;1430
443.063;1430
443.125;1433
443.188;1433
443.250;1435
443.313;1442
443.375;1435
443.438;1433
443.500;1430
443.563;1430
443.625;1430
443.688;1435
443.750;1433
443.813;1447
443.875;1430
443.938;1433
444.000;1435
444.063;1445
444.125;1440
444.188;1430
444.250;1430
444.313;1428
444.375;1430
444.438;1420
444.500;1437
444.563;1437
444.625;1433
444.688;1430
444.750;1433
444.813;1418
444.875;1430
444.938;1433
445.000;1425
445.063;1430
445.125;1433
445.188;1428
445.250;1428
445.313;1430
445.375;1425
445.438;1423
445.500;1425
445.563;1430
445.625;1435
445.688;1420
445.750;1423
445.813;1420
445.875;1433
445.938;1435
446.000;1428
446.063;1428
446.125;1425
446.188;1418
446.250;1435
446.313;1428
446.375;1428
446.438;1423
446.500;1425
446.563;1418
446.625;1423
446.688;1435
446.750;1420
446.813;1428
446.875;1425
446.938;1425
447.000;1423
447.063;1423
447.125;1428
447.188;1420
447.250;1420
447.313;1425
447.375;1425
447.438;1425
447.500;1423
447.563;1416
447.625;1423
447.688;1418
447.750;1425
447.813;1413
447.875;1420
447.938;1420
448.000;1425
448.063;1425
448.125;1413
448.188;1425
448.250;1423
448.313;1428
448.375;1413
448.438;1420
448.500;1423
448.563;1423
448.625;1428
448.688;1416
448.750;1423
448.813;1425
448.875;1428
448.938;1428
449.000;1425
449.063;1416
449.125;1428
449.188;1425
449.250;1433
449.313;1425
449.375;1423
449.438;1428
449.500;1428
449.563;1423
449.625;1430
449.688;1425
449.750;1420
449.813;1433
449.875;1418
449.938;1425
450.000;1437
450.063;1440
450.125;1530
450.188;1530
450.250;1533
450.313;1516
450.375;1511
450.438;1503
450.500;1496
450.563;1503
450.625;1518
450.688;1516
450.750;1533
450.813;1557
450.875;1542
450.938;1547
451.000;1547
451.063;1552
451.125;1550
451.188;1547
451.250;1557
451.313;1542
451.375;1545
451.438;1547
451.500;1538
451.563;1547
451.625;1535
451.688;1547
451.750;1547
451.813;1557
451.875;1542
451.938;1545
452.000;1545
452.063;1540
452.125;1550
452.188;1552
452.250;1542
452.313;1550
452.375;1550
452.438;1547
452.500;1550
452.563;1545
452.625;1542
452.688;1550
452.750;1545
452.813;1540
452.875;1550
452.938;1547
453.000;1542
453.063;1538
453.125;1540
453.188;1538
453.250;1547
453.313;1535
453.375;1538
453.438;1542
453.500;1545
453.563;1542
453.625;1545
453.688;1545
453.750;1542
453.813;1540
453.875;1540
453.938;1545
454.000;1542
454.063;1538
454.125;1542
454.188;1538
454.250;1540
454.313;1545
454.375;1530
454.438;1542
454.500;1542
454.563;1538
454.625;1540
454.688;1540
454.750;1557
454.813;1535
454.875;1540
454.938;1540
455.000;1545
455.063;1545
455.125;1547
455.188;1542
455.250;1540
455.313;1540
455.375;1547
455.438;1530
455.500;1545
455.563;1538
455.625;1530
455.688;1528
455.750;1530
455.813;1533
455.875;1533
455.938;1528
456.000;1528
456.063;1538
456.125;1538
456.188;1533
456.250;1535
456.313;1538
456.375;1535
456.438;1530
456.500;1542
456.563;1538
456.625;1533
456.688;1530
456.750;1533
456.813;1535
456.875;1530
456.938;1528
457.000;1533
457.063;1528
457.125;1530
457.188;1525
457.250;1530
457.313;1533
457.375;1533
457.438;1525
457.500;1520
457.563;1525
457.625;1530
457.688;1523
457.750;1530
457.813;1520
457.875;1528
457.938;1528
458.000;1518
458.063;1535
458.125;1523
458.188;1525
458.250;1528
458.313;1520
458.375;1516
458.438;1533
458.500;1535
458.563;1525
458.625;1525
458.688;1533
458.750;1530
458.813;1516
458.875;1523
458.938;1533
459.000;1530
459.063;1528
459.125;1520
459.188;1523
459.250;1530
459.313;1523
459.375;1525
459.438;1530
459.500;1528
459.563;1530
459.625;1520
459.688;1528
459.750;1528
459.813;1520
459.875;1525
459.938;1518
460.000;1525
460.063;1518
460.125;1516
460.188;1516
460.250;1520
460.313;1528
460.375;1523
460.438;1525
460.500;1516
460.563;1520
460.625;1525
460.688;1530
460.750;1525
460.813;1528
460.875;1525
460.938;1516
461.000;1518
461.063;1520
461.125;1523
461.188;1516
461.250;1530
461.313;1525
461.375;1516
461.438;1516
461.500;1523
461.563;1518
461.625;1518
461.688;1518
461.750;1523
461.813;1518
461.875;1523
461.938;1525
462.000;1523
462.063;1518
462.125;1528
462.188;1523
462.250;1530
462.313;1518
462.375;1530
462.438;1516
462.500;1525
462.563;1523
462.625;1513
462.688;1530
462.750;1530
462.813;1520
462.875;1523
462.938;1525
463.000;1528
463.063;1528
463.125;1523
463.188;1518
463.250;1525
463.313;1520
463.375;1528
463.438;1525
463.500;1530
463.563;1525
463.625;1525
463.688;1518
463.750;1523
463.813;1523
463.875;1528
463.938;1528
464.000;1513
464.063;1518
464.125;1523
464.188;1538
464.250;1533
464.313;1520
464.375;1528
464.438;1525
464.500;1523
464.563;1518
464.625;1525
464.688;1523
464.750;1525
464.813;1530
464.875;1530
464.938;1523
465.000;1525
465.063;1533
465.125;1528
465.188;1530
465.250;1530
465.313;1530
465.375;1533
465.438;1518
465.500;1523
465.563;1520
465.625;1530
465.688;1530
465.750;1525
465.813;1523
465.875;1523
465.938;1523
466.000;1528
466.063;1523
466.125;1520
466.188;1528
466.250;1530
466.313;1523
466.375;1520
466.438;1523
466.500;1525
466.563;1528
466.625;1520
466.688;1523
466.750;1520
466.813;1533
466.875;1523
466.938;1530
467.000;1525
467.063;1513
467.125;1528
467.188;1533
467.250;1523
467.313;1530
467.375;1530
467.438;1530
467.500;1533
467.563;1520
467.625;1520
467.688;1518
467.750;1525
467.813;1516
467.875;1516
467.938;1525
468.000;1520
468.063;1518
468.125;1516
468.188;1528
468.250;1528
468.313;1525
468.375;1516
468.438;1513
468.500;1525
468.563;1525
468.625;1518
468.688;1518
468.750;1513
468.813;1528
468.875;1520
468.938;1513
469.000;1513
469.063;1520
469.125;1511
469.188;1520
469.250;1511
469.313;1520
469.375;1525
469.438;1518
469.500;1523
469.563;1513
469.625;1513
469.688;1516
469.750;1518
469.813;1513
469.875;1518
469.938;1511
470.000;1516
470.063;1518
470.125;1520
470.188;1516
470.250;1516
470.313;1518
470.375;1518
470.438;1518
470.500;1516
470.563;1513
470.625;1518
470.688;1516
470.750;1523
470.813;1520
470.875;1508
470.938;1511
471.000;1513
471.063;1513
471.125;1511
471.188;1516
471.250;1508
471.313;1499
471.375;1511
471.438;1511
471.500;1513
471.563;1511
471.625;1520
471.688;1513
471.750;1513
471.813;1506
471.875;1511
471.938;1513
472.000;1511
472.063;1520
472.125;1506
472.188;1516
472.250;1513
472.313;1511
472.375;1511
472.438;1508
472.500;1516
472.563;1508
472.625;1523
472.688;1511
472.750;1506
472.813;1516
472.875;1518
472.938;1508
473.000;1508
473.063;1499
473.125;1518
473.188;1516
473.250;1516
473.313;1513
473.375;1516
473.438;1516
473.500;1525
473.563;1506
473.625;1525
473.688;1518
473.750;1511
473.813;1518
473.875;1513
473.938;1508
474.000;1516
474.063;1513
474.125;1513
474.188;1518
474.250;1513
474.313;1503
474.375;1516
474.438;1513
474.500;1516
474.563;1518
474.625;1513
474.688;1508
474.750;1508
474.813;1511
474.875;1518
474.938;1506
475.000;1503
475.063;1516
475.125;1520
475.188;1513
475.250;1520
475.313;1513
475.375;1516
475.438;1518
475.500;1508
475.563;1516
475.625;1530
475.688;1528
475.750;1508
475.813;1520
475.875;1520
475.938;1520
476.000;1523
476.063;1528
476.125;1516
476.188;1523
476.250;1525
476.313;1523
476.375;1511
476.438;1528
476.500;1513
476.563;1525
476.625;1516
476.688;1520
476.750;1518
476.813;1513
476.875;1520
476.938;1511
477.000;1516
477.063;1523
477.125;1518
477.188;1511
477.250;1523
477.313;1518
477.375;1518
477.438;1516
477.500;1523
477.563;1513
477.625;1511
477.688;1513
477.750;1513
477.813;1520
477.875;1520
477.938;1516
478.000;1511
478.063;1525
478.125;1528
478.188;1518
478.250;1518
478.313;1516
478.375;1516
478.438;1523
478.500;1523
478.563;1516
478.625;1520
478.688;1520
478.750;1525
478.813;1511
478.875;1523
478.938;1516
479.000;1520
479.063;1516
479.125;1523
479.188;1523
479.250;1513
479.313;1518
479.375;1513
479.438;1520
479.500;1516
479.563;1516
479.625;1513
479.688;1523
479.750;1518
479.813;1511
479.875;1516
479.938;1508
480.000;1508
480.063;1525
480.125;1508
480.188;1516
480.250;1511
480.313;1520
480.375;1516
480.438;1513
480.500;1516
480.563;1511
480.625;1520
480.688;1513
480.750;1513
480.813;1516
480.875;1518
480.938;1511
481.000;1499
481.063;1511
481.125;1516
481.188;1511
481.250;1506
481.313;1506
481.375;1511
481.438;1513
481.500;1513
481.563;1511
481.625;1503
481.688;1511
481.750;1511
481.813;1516
481.875;1513
481.938;1511
482.000;1506
482.063;1513
482.125;1506
482.188;1511
482.250;1501
482.313;1506
482.375;1513
482.438;1496
482.500;1508
482.563;1513
482.625;1518
482.688;1503
482.750;1503
482.813;1518
482.875;1503
482.938;1516
483.000;1503
483.063;1501
483.125;1503
483.188;1518
483.250;1503
483.313;1511
483.375;1503
483.438;1513
483.500;1511
483.563;1508
483.625;1501
483.688;1506
483.750;1520
483.813;1499
483.875;1511
483.938;1516
484.000;1511
484.063;1496
484.125;1508
484.188;1503
484.250;1508
484.313;1511
484.375;1503
484.438;1508
484.500;1511
484.563;1506
484.625;1506
484.688;1506
484.750;1506
484.813;1501
484.875;1501
484.938;1499
485.000;1494
485.063;1499
485.125;1516
485.188;1506
485.250;1513
485.313;1503
485.375;1499
485.438;1506
485.500;1506
485.563;1511
485.625;1506
485.688;1511
485.750;1501
485.813;1508
485.875;1511
485.938;1511
486.000;1506
486.063;1503
486.125;1506
486.188;1503
486.250;1503
486.313;1503
486.375;1501
486.438;1503
486.500;1513
486.563;1506
486.625;1511
486.688;1513
486.750;1506
486.813;1516
486.875;1508
486.938;1496
487.000;1503
487.063;1503
487.125;1511
487.188;1513
487.250;1520
487.313;1516
487.375;1513
487.438;1511
487.500;1518
487.563;1508
487.625;1511
487.688;1511
487.750;1511
487.813;1506
487.875;1511
487.938;1501
488.000;1511
488.063;1511
488.125;1516
488.188;1516
488.250;1518
488.313;1506
488.375;1506
488.438;1506
488.500;1513
488.563;1523
488.625;1511
488.688;1516
488.750;1513
488.813;1516
488.875;1513
488.938;1508
489.000;1518
489.063;1518
489.125;1516
489.188;1520
489.250;1516
489.313;1513
489.375;1503
489.438;1503
489.500;1513
489.563;1518
489.625;1513
489.688;1513
489.750;1511
489.813;1511
489.875;1520
489.938;1516
490.000;1511
490.063;1513
490.125;1513
490.188;1513
490.250;1511
490.313;1516
490.375;1518
490.438;1513
490.500;1506
490.563;1516
490.625;1508
490.688;1520
490.750;1513
490.813;1513
490.875;1518
490.938;1516
491.000;1518
491.063;1508
491.125;1513
491.188;1513
491.250;1506
491.313;1511
491.375;1511
491.438;1511
491.500;1511
491.563;1513
491.625;1511
491.688;1513
491.750;1511
491.813;1503
491.875;1516
491.938;1508
492.000;1508
492.063;1513
492.125;1511
492.188;1513
492.250;1518
492.313;1513
492.375;1503
492.438;1513
492.500;1508
492.563;1501
492.625;1506
492.688;1508
492.750;1518
492.813;1501
492.875;1503
492.938;1503
493.000;1511
493.063;1511
493.125;1506
493.188;1516
493.250;1511
493.313;1496
493.375;1503
493.438;1506
493.500;1503
493.563;1501
493.625;1503
493.688;1506
493.750;1503
493.813;1503
493.875;1508
493.938;1499
494.000;1511
494.063;1496
494.125;1506
494.188;1511
494.250;1508
494.313;1501
494.375;1499
494.438;1508
494.500;1508
494.563;1503
494.625;1511
494.688;1499
494.750;1506
494.813;1503
494.875;1506
494.938;1506
495.000;1501
495.063;1499
495.125;1501
495.188;1511
495.250;1506
495.313;1486
495.375;1499
495.438;1501
495.500;1496
495.563;1503
495.625;1499
495.688;1506
495.750;1503
495.813;1496
495.875;1499
495.938;1494
496.000;1506
496.063;1501
496.125;1499
496.188;1496
496.250;1491
496.313;1499
496.375;1501
496.438;1503
496.500;1508
496.563;1501
496.625;1494
496.688;1494
496.750;1501
496.813;1499
496.875;1494
496.938;1501
497.000;1508
497.063;1491
497.125;1503
497.188;1506
497.250;1501
497.313;1494
497.375;1503
497.438;1508
497.500;1499
497.563;1503
497.625;1501
497.688;1499
497.750;1506
497.813;1499
497.875;1506
497.938;1506
498.000;1496
498.063;1506
498.125;1489
498.188;1501
498.250;1501
498.313;1513
498.375;1506
498.438;1501
498.500;1496
498.563;1501
498.625;1503
498.688;1506
498.750;1506
498.813;1496
498.875;1501
498.938;1508
499.000;1499
499.063;1506
499.125;1511
499.188;1503
499.250;1508
499.313;1501
499.375;1489
499.438;1506
499.500;1503
499.563;1501
499.625;1506
499.688;1508
499.750;1501
499.813;1503
499.875;1506
499.938;1501
500.000;1508
500.063;1508
500.125;1506
500.188;1508
500.250;1499
500.313;1501
500.375;1499
500.438;1503
500.500;1508
500.563;1501
500.625;1503
500.688;1506
500.750;1494
500.813;1501
500.875;1513
500.938;1501
501.000;1513
501.063;1503
501.125;1506
501.188;1508
501.250;1508
501.313;1503
501.375;1506
501.438;1516
501.500;1511
501.563;1508
501.625;1506
501.688;1503
501.750;1513
501.813;1513
501.875;1511
501.938;1506
502.000;1506
502.063;1508
502.125;1508
502.188;1506
502.250;1506
502.313;1511
502.375;1506
502.438;1503
502.500;1501
502.563;1499
502.625;1503
502.688;1506
502.750;1501
502.813;1506
502.875;1508
502.938;1508
503.000;1499
503.063;1501
503.125;1501
503.188;1506
503.250;1503
503.313;1516
503.375;1503
503.438;1513
503.500;1511
503.563;1513
503.625;1508
503.688;1506
503.750;1503
503.813;1503
503.875;1506
503.938;1506
504.000;1506
504.063;1506
504.125;1501
504.188;1506
504.250;1506
504.313;1499
504.375;1506
504.438;1503
504.500;1513
504.563;1503
504.625;1506
504.688;1503
504.750;1496
504.813;1501
504.875;1508
504.938;1501
505.000;1506
505.063;1516
505.125;1501
505.188;1516
505.250;1506
505.313;1506
505.375;1501
505.438;1499
505.500;1503
505.563;1494
505.625;1513
505.688;1503
505.750;1511
505.813;1503
505.875;1499
505.938;1494
506.000;1503
506.063;1506
506.125;1506
506.188;1499
506.250;1506
506.313;1506
506.375;1494
506.438;1501
506.500;1496
506.563;1503
506.625;1501
506.688;1499
506.750;1499
506.813;1494
506.875;1501
506.938;1503
507.000;1501
507.063;1499
507.125;1499
507.188;1506
507.250;1496
507.313;1499
507.375;1491
507.438;1491
507.500;1503
507.563;1501
507.625;1501
507.688;1489
507.750;1496
507.813;1499
507.875;1496
507.938;1501
508.000;1501
508.063;1494
508.125;1491
508.188;1486
508.250;1484
508.313;1489
508.375;1489
508.438;1503
508.500;1503
508.563;1499
508.625;1496
508.688;1501
508.750;1506
508.813;1499
508.875;1491
508.938;1499
509.000;1496
509.063;1494
509.125;1491
509.188;1491
509.250;1491
509.313;1486
509.375;1499
509.438;1503
509.500;1489
509.563;1501
509.625;1491
509.688;1491
509.750;1484
509.813;1503
509.875;1503
509.938;1491
510.000;1499
510.063;1491
510.125;1496
510.188;1496
510.250;1489
510.313;1494
510.375;1496
510.438;1501
510.500;1501
510.563;1491
510.625;1501
510.688;1503
510.750;1501
510.813;1501
510.875;1511
510.938;1494
511.000;1501
511.063;1501
511.125;1499
511.188;1501
511.250;1491
511.313;1506
511.375;1499
511.438;1496
511.500;1496
511.563;1494
511.625;1501
511.688;1503
511.750;1499
511.813;1491
511.875;1496
511.938;1496
512.000;1508
512.063;1499
512.125;1501
512.188;1501
512.250;1506
512.313;1503
512.375;1499
512.438;1506
512.500;1503
512.563;1496
512.625;1503
512.688;1496
512.750;1501
512.813;1503
512.875;1501
512.938;1499
513.000;1501
513.063;1506
513.125;1494
513.188;1501
513.250;1503
513.313;1506
513.375;1496
513.438;1501
513.500;1503
513.563;1506
513.625;1503
513.688;1506
513.750;1501
513.813;1501
513.875;1511
513.938;1499
514.000;1501
514.063;1503
514.125;1499
514.188;1506
514.250;1496
514.313;1501
514.375;1501
514.438;1503
514.500;1506
514.563;1503
514.625;1499
514.688;1496
514.750;1506
514.813;1503
514.875;1506
514.938;1499
515.000;1503
515.063;1503
515.125;1499
515.188;1508
515.250;1503
515.313;1499
515.375;1494
515.438;1501
515.500;1494
515.563;1503
515.625;1501
515.688;1506
515.750;1501
515.813;1503
515.875;1503
515.938;1496
516.000;1501
516.063;1501
516.125;1499
516.188;1496
516.250;1501
516.313;1499
516.375;1494
516.438;1508
516.500;1503
516.563;1506
516.625;1494
516.688;1499
516.750;1506
516.813;1501
516.875;1501
516.938;1499
517.000;1494
517.063;1501
517.125;1496
517.188;1501
517.250;1501
517.313;1499
517.375;1503
517.438;1501
517.500;1501
517.563;1501
517.625;1506
517.688;1496
517.750;1484
517.813;1496
517.875;1491
517.938;1501
518.000;1499
518.063;1494
518.125;1481
518.188;1499
518.250;1491
518.313;1491
518.375;1496
518.438;1499
518.500;1501
518.563;1501
518.625;1496
518.688;1491
518.750;1496
518.813;1501
518.875;1501
518.938;1486
519.000;1494
519.063;1494
519.125;1491
519.188;1494
519.250;1494
519.313;1491
519.375;1491
519.438;1499
519.500;1491
519.563;1489
519.625;1486
519.688;1494
519.750;1499
519.813;1496
519.875;1486
519.938;1489
520.000;1499
520.063;1489
520.125;1491
520.188;1486
520.250;1503
520.313;1494
520.375;1484
520.438;1491
520.500;1494
520.563;1503
520.625;1486
520.688;1501
520.750;1499
520.813;1486
520.875;1489
520.938;1491
521.000;1486
521.063;1491
521.125;1496
521.188;1491
521.250;1499
521.313;1489
521.375;1489
521.438;1496
521.500;1486
521.563;1491
521.625;1499
521.688;1491
521.750;1486
521.813;1501
521.875;1481
521.938;1491
522.000;1501
522.063;1499
522.125;1489
522.188;1501
522.250;1496
522.313;1486
522.375;1491
522.438;1501
522.500;1486
522.563;1486
522.625;1494
522.688;1491
522.750;1501
522.813;1486
522.875;1491
522.938;1484
523.000;1486
523.063;1477
523.125;1491
523.188;1501
523.250;1486
523.313;1499
523.375;1494
523.438;1496
523.500;1501
523.563;1494
523.625;1491
523.688;1496
523.750;1494
523.813;1499
523.875;1496
523.938;1496
524.000;1486
524.063;1491
524.125;1499
524.188;1501
524.250;1496
524.313;1506
524.375;1486
524.438;1499
524.500;1491
524.563;1489
524.625;1496
524.688;1489
524.750;1494
524.813;1494
524.875;1494
524.938;1499
525.000;1494
525.063;1491
525.125;1489
525.188;1499
525.250;1499
525.313;1496
525.375;1491
525.438;1499
525.500;1501
525.563;1496
525.625;1496
525.688;1501
525.750;1501
525.813;1503
525.875;1496
525.938;1499
526.000;1499
526.063;1499
526.125;1499
526.188;1499
526.250;1496
526.313;1508
526.375;1496
526.438;1501
526.500;1499
526.563;1499
526.625;1491
526.688;1501
526.750;1503
526.813;1499
526.875;1491
526.938;1501
527.000;1501
527.063;1486
527.125;1499
527.188;1499
527.250;1496
527.313;1486
527.375;1503
527.438;1508
527.500;1499
527.563;1496
527.625;1489
527.688;1494
527.750;1499
527.813;1496
527.875;1501
527.938;1501
528.000;1491
528.063;1491
528.125;1496
528.188;1494
528.250;1494
528.313;1489
528.375;1496
528.438;1489
528.500;1494
528.563;1501
528.625;1501
528.688;1506
528.750;1499
528.813;1494
528.875;1489
528.938;1491
529.000;1489
529.063;1496
529.125;1496
529.188;1489
529.250;1503
529.313;1494
529.375;1491
529.438;1496
529.500;1496
529.563;1503
529.625;1499
529.688;1486
529.750;1486
529.813;1484
529.875;1484
529.938;1491
530.000;1499
530.063;1494
530.125;1494
530.188;1489
530.250;1489
530.313;1499
530.375;1491
530.438;1486
530.500;1491
530.563;1486
530.625;1489
530.688;1491
530.750;1494
530.813;1494
530.875;1489
530.938;1486
531.000;1486
531.063;1484
531.125;1491
531.188;1489
531.250;1501
531.313;1494
531.375;1491
531.438;1489
531.500;1494
531.563;1494
531.625;1489
531.688;1489
531.750;1486
531.813;1491
531.875;1494
531.938;1484
532.000;1494
532.063;1489
532.125;1489
532.188;1489
532.250;1486
532.313;1491
532.375;1484
532.438;1484
532.500;1486
532.563;1494
532.625;1479
532.688;1489
532.750;1489
532.813;1489
532.875;1481
532.938;1491
533.000;1484
533.063;1479
533.125;1486
533.188;1496
533.250;1477
533.313;1491
533.375;1491
533.438;1486
533.500;1481
533.563;1496
533.625;1491
533.688;1484
533.750;1491
533.813;1486
533.875;1494
533.938;1489
534.000;1499
534.063;1496
534.125;1496
534.188;1486
534.250;1491
534.313;1491
534.375;1501
534.438;1499
534.500;1489
534.563;1489
534.625;1494
534.688;1489
534.750;1472
534.813;1491
534.875;1491
534.938;1494
535.000;1489
535.063;1479
535.125;1491
535.188;1494
535.250;1489
535.313;1496
535.375;1494
535.438;1486
535.500;1489
535.563;1496
535.625;1501
535.688;1496
535.750;1484
535.813;1494
535.875;1484
535.938;1489
536.000;1499
536.063;1491
536.125;1491
536.188;1484
536.250;1491
536.313;1494
536.375;1489
536.438;1494
536.500;1484
536.563;1499
536.625;1494
536.688;1491
536.750;1491
536.813;1491
536.875;1496
536.938;1491
537.000;1484
537.063;1481
537.125;1491
537.188;1499
537.250;1491
537.313;1486
537.375;1496
537.438;1484
537.500;1494
537.563;1496
537.625;1479
537.688;1496
537.750;1486
537.813;1491
537.875;1496
537.938;1499
538.000;1486
538.063;1494
538.125;1496
538.188;1489
538.250;1486
538.313;1499
538.375;1484
538.438;1486
538.500;1494
538.563;1491
538.625;1499
538.688;1491
538.750;1486
538.813;1494
538.875;1484
538.938;1501
539.000;1477
539.063;1484
539.125;1484
539.188;1489
539.250;1494
539.313;1489
539.375;1491
539.438;1501
539.500;1496
539.563;1503
539.625;1489
539.688;1496
539.750;1496
539.813;1491
539.875;1491
539.938;1491
540.000;1484
540.063;1494
540.125;1494
540.188;1491
540.250;1499
540.313;1479
540.375;1491
540.438;1499
540.500;1491
540.563;1486
540.625;1499
540.688;1501
540.750;1496
540.813;1489
540.875;1484
540.938;1496
541.000;1484
541.063;1491
541.125;1489
541.188;1489
541.250;1489
541.313;1494
541.375;1496
541.438;1496
541.500;1479
541.563;1494
541.625;1491
541.688;1494
541.750;1494
541.813;1484
541.875;1489
541.938;1494
542.000;1479
542.063;1486
542.125;1486
542.188;1486
542.250;1484
542.313;1484
542.375;1481
542.438;1479
542.500;1491
542.563;1491
542.625;1494
542.688;1479
542.750;1489
542.813;1486
542.875;1484
542.938;1477
543.000;1484
543.063;1489
543.125;1484
543.188;1484
543.250;1484
543.313;1484
543.375;1489
543.438;1486
543.500;1486
543.563;1489
543.625;1486
543.688;1491
543.750;1486
543.813;1481
543.875;1484
543.938;1481
544.000;1484
544.063;1491
544.125;1486
544.188;1484
544.250;1486
544.313;1486
544.375;1479
544.438;1477
544.500;1491
544.563;1486
544.625;1486
544.688;1484
544.750;1479
544.813;1486
544.875;1477
544.938;1477
545.000;1481
545.063;1477
545.125;1481
545.188;1484
545.250;1477
545.313;1489
545.375;1484
545.438;1491
545.500;1489
545.563;1477
545.625;1474
545.688;1481
545.750;1491
545.813;1481
545.875;1481
545.938;1484
546.000;1481
546.063;1484
546.125;1479
546.188;1484
546.250;1486
546.313;1484
546.375;1472
546.438;1491
546.500;1481
546.563;1481
546.625;1481
546.688;1491
546.750;1491
546.813;1486
546.875;1486
546.938;1477
547.000;1484
547.063;1496
547.125;1486
547.188;1484
547.250;1477
547.313;1486
547.375;1481
547.438;1486
547.500;1486
547.563;1489
547.625;1499
547.688;1479
547.750;1491
547.813;1481
547.875;1484
547.938;1479
548.000;1484
548.063;1491
548.125;1484
548.188;1479
548.250;1477
548.313;1486
548.375;1484
548.438;1491
548.500;1491
548.563;1491
548.625;1496
548.688;1489
548.750;1489
548.813;1486
548.875;1486
548.938;1496
549.000;1486
549.063;1499
549.125;1489
549.188;1494
549.250;1489
549.313;1491
549.375;1489
549.438;1481
549.500;1491
549.563;1501
549.625;1484
549.688;1489
549.750;1486
549.813;1486
549.875;1486
549.938;1494
550.000;1491
550.063;1486
550.125;1491
550.188;1479
550.250;1494
550.313;1481
550.375;1484
550.438;1491
550.500;1489
550.563;1489
550.625;1496
550.688;1494
550.750;1491
550.813;1484
550.875;1491
550.938;1484
551.000;1489
551.063;1499
551.125;1494
551.188;1491
551.250;1496
551.313;1496
551.375;1491
551.438;1484
551.500;1479
551.563;1484
551.625;1489
551.688;1491
551.750;1486
551.813;1496
551.875;1494
551.938;1494
552.000;1494
552.063;1486
552.125;1491
552.188;1481
552.250;1484
552.313;1496
552.375;1484
552.438;1489
552.500;1489
552.563;1489
552.625;1491
552.688;1489
552.750;1491
552.813;1486
552.875;1494
552.938;1494
553.000;1499
553.063;1496
553.125;1499
553.188;1489
553.250;1489
553.313;1491
553.375;1484
553.438;1489
553.500;1486
553.563;1489
553.625;1481
553.688;1486
553.750;1481
553.813;1494
553.875;1479
553.938;1494
554.000;1486
554.063;1486
554.125;1494
554.188;1474
554.250;1481
554.313;1479
554.375;1484
554.438;1486
554.500;1486
554.563;1494
554.625;1486
554.688;1489
554.750;1479
554.813;1481
554.875;1489
554.938;1481
555.000;1491
555.063;1481
555.125;1484
555.188;1489
555.250;1484
555.313;1489
555.375;1477
555.438;1484
555.500;1486
555.563;1494
555.625;1489
555.688;1481
555.750;1481
555.813;1479
555.875;1489
555.938;1484
556.000;1477
556.063;1484
556.125;1486
556.188;1481
556.250;1479
556.313;1486
556.375;1484
556.438;1486
556.500;1491
556.563;1484
556.625;1484
556.688;1481
556.750;1494
556.813;1486
556.875;1484
556.938;1491
557.000;1486
557.063;1477
557.125;1484
557.188;1481
557.250;1477
557.313;1481
557.375;1484
557.438;1474
557.500;1486
557.563;1481
557.625;1477
557.688;1481
557.750;1474
557.813;1486
557.875;1481
557.938;1479
558.000;1481
558.063;1491
558.125;1486
558.188;1474
558.250;1479
558.313;1481
558.375;1479
558.438;1489
558.500;1486
558.563;1486
558.625;1479
558.688;1484
558.750;1486
558.813;1481
558.875;1486
558.938;1469
559.000;1489
559.063;1484
559.125;1481
559.188;1472
559.250;1484
559.313;1484
559.375;1489
559.438;1486
559.500;1486
559.563;1479
559.625;1491
559.688;1481
559.750;1481
559.813;1481
559.875;1481
559.938;1486
560.000;1489
560.063;1486
560.125;1486
560.188;1489
560.250;1489
560.313;1484
560.375;1477
560.438;1486
560.500;1489
560.563;1486
560.625;1479
560.688;1484
560.750;1491
560.813;1481
560.875;1484
560.938;1489
561.000;1486
561.063;1486
561.125;1491
561.188;1477
561.250;1479
561.313;1486
561.375;1481
561.438;1474
561.500;1479
561.563;1484
561.625;1491
561.688;1489
561.750;1486
561.813;1494
561.875;1489
561.938;1491
562.000;1489
562.063;1489
562.125;1489
562.188;1484
562.250;1479
562.313;1489
562.375;1484
562.438;1489
562.500;1484
562.563;1486
562.625;1491
562.688;1481
562.750;1486
562.813;1491
562.875;1499
562.938;1491
563.000;1486
563.063;1484
563.125;1484
563.188;1494
563.250;1489
563.313;1481
563.375;1484
563.438;1486
563.500;1491
563.563;1494
563.625;1477
563.688;1491
563.750;1491
563.813;1486
563.875;1486
563.938;1491
564.000;1489
564.063;1491
564.125;1489
564.188;1489
564.250;1484
564.313;1484
564.375;1484
564.438;1486
564.500;1491
564.563;1489
564.625;1489
564.688;1484
564.750;1496
564.813;1479
564.875;1491
564.938;1489
565.000;1477
565.063;1489
565.125;1489
565.188;1481
565.250;1486
565.313;1501
565.375;1494
565.438;1486
565.500;1477
565.563;1484
565.625;1486
565.688;1484
565.750;1489
565.813;1496
565.875;1486
565.938;1489
566.000;1491
566.063;1486
566.125;1496
566.188;1481
566.250;1491
566.313;1481
566.375;1479
566.438;1477
566.500;1491
566.563;1489
566.625;1486
566.688;1481
566.750;1491
566.813;1479
566.875;1484
566.938;1479
567.000;1491
567.063;1481
567.125;1489
567.188;1477
567.250;1484
567.313;1489
567.375;1481
567.438;1489
567.500;1489
567.563;1477
567.625;1489
567.688;1489
567.750;1477
567.813;1479
567.875;1486
567.938;1486
568.000;1484
568.063;1479
568.125;1481
568.188;1486
568.250;1486
568.313;1486
568.375;1486
568.438;1481
568.500;1486
568.563;1489
568.625;1489
568.688;1472
568.750;1479
568.813;1481
568.875;1481
568.938;1479
569.000;1484
569.063;1474
569.125;1474
569.188;1477
569.250;1484
569.313;1486
569.375;1472
569.438;1484
569.500;1484
569.563;1477
569.625;1481
569.688;1481
569.750;1484
569.813;1474
569.875;1479
569.938;1481
570.000;1484
570.063;1481
570.125;1486
570.188;1477
570.250;1484
570.313;1481
570.375;1484
570.438;1479
570.500;1469
570.563;1479
570.625;1486
570.688;1467
570.750;1477
570.813;1481
570.875;1484
570.938;1472
571.000;1477
571.063;1484
571.125;1484
571.188;1484
571.250;1474
571.313;1474
571.375;1474
571.438;1484
571.500;1484
571.563;1484
571.625;1477
571.688;1484
571.750;1481
571.813;1481
571.875;1481
571.938;1489
572.000;1481
572.063;1489
572.125;1479
572.188;1491
572.250;1481
572.313;1479
572.375;1484
572.438;1494
572.500;1484
572.563;1484
572.625;1494
572.688;1486
572.750;1481
572.813;1486
572.875;1479
572.938;1484
573.000;1486
573.063;1484
573.125;1477
573.188;1479
573.250;1484
573.313;1484
573.375;1486
573.438;1489
573.500;1491
573.563;1479
573.625;1486
573.688;1484
573.750;1481
573.813;1491
573.875;1484
573.938;1489
574.000;1486
574.063;1481
574.125;1494
574.188;1486
574.250;1484
574.313;1479
574.375;1491
574.438;1491
574.500;1486
574.563;1486
574.625;1481
574.688;1491
574.750;1481
574.813;1481
574.875;1481
574.938;1491
575.000;1479
575.063;1486
575.125;1489
575.188;1479
575.250;1484
575.313;1489
575.375;1494
575.438;1481
575.500;1491
575.563;1479
575.625;1481
575.688;1494
575.750;1484
575.813;1477
575.875;1491
575.938;1484
576.000;1479
576.063;1489
576.125;1486
576.188;1486
576.250;1486
576.313;1486
576.375;1481
576.438;1486
576.500;1484
576.563;1494
576.625;1486
576.688;1494
576.750;1481
576.813;1481
576.875;1484
576.938;1489
577.000;1481
577.063;1481
577.125;1484
577.188;1484
577.250;1491
577.313;1484
577.375;1472
577.438;1484
577.500;1481
577.563;1479
577.625;1474
577.688;1484
577.750;1489
577.813;1486
577.875;1489
577.938;1481
578.000;1494
578.063;1489
578.125;1486
578.188;1489
578.250;1484
578.313;1481
578.375;1484
578.438;1486
578.500;1486
578.563;1486
578.625;1486
578.688;1484
578.750;1486
578.813;1484
578.875;1486
578.938;1489
579.000;1481
579.063;1479
579.125;1486
579.188;1481
579.250;1477
579.313;1484
579.375;1479
579.438;1477
579.500;1479
579.563;1491
579.625;1484
579.688;1484
579.750;1481
579.813;1489
579.875;1491
579.938;1499
580.000;1484
580.063;1479
580.125;1474
580.188;1484
580.250;1489
580.313;1474
580.375;1481
580.438;1477
580.500;1484
580.563;1481
580.625;1479
580.688;1484
580.750;1479
580.813;1479
580.875;1477
580.938;1486
581.000;1477
581.063;1486
581.125;1486
581.188;1472
581.250;1474
581.313;1472
581.375;1477
581.438;1486
581.500;1477
581.563;1484
581.625;1481
581.688;1481
581.750;1484
581.813;1484
581.875;1486
581.938;1486
582.000;1477
582.063;1486
582.125;1481
582.188;1474
582.250;1474
582.313;1479
582.375;1469
582.438;1481
582.500;1477
582.563;1477
582.625;1479
582.688;1479
582.750;1484
582.813;1484
582.875;1481
582.938;1479
583.000;1474
583.063;1484
583.125;1479
583.188;1484
583.250;1489
583.313;1481
583.375;1486
583.438;1486
583.500;1484
583.563;1481
583.625;1481
583.688;1477
583.750;1477
583.813;1481
583.875;1494
583.938;1481
584.000;1484
584.063;1481
584.125;1484
584.188;1472
584.250;1484
584.313;1479
584.375;1489
584.438;1486
584.500;1481
584.563;1481
584.625;1486
584.688;1479
584.750;1481
584.813;1477
584.875;1484
584.938;1474
585.000;1489
585.063;1491
585.125;1481
585.188;1486
585.250;1486
585.313;1481
585.375;1484
585.438;1484
585.500;1486
585.563;1484
585.625;1486
585.688;1491
585.750;1481
585.813;1477
585.875;1477
585.938;1484
586.000;1481
586.063;1491
586.125;1484
586.188;1484
586.250;1484
586.313;1479
586.375;1477
586.438;1481
586.500;1479
586.563;1484
586.625;1481
586.688;1486
586.750;1491
586.813;1479
586.875;1486
586.938;1491
587.000;1486
587.063;1496
587.125;1481
587.188;1481
587.250;1491
587.313;1481
587.375;1489
587.438;1494
587.500;1484
587.563;1479
587.625;1484
587.688;1479
587.750;1489
587.813;1484
587.875;1481
587.938;1479
588.000;1484
588.063;1484
588.125;1486
588.188;1486
588.250;1481
588.313;1481
588.375;1489
588.438;1484
588.500;1491
588.563;1489
588.625;1479
588.688;1489
588.750;1494
588.813;1481
588.875;1484
588.938;1484
589.000;1477
589.063;1479
589.125;1486
589.188;1479
589.250;1491
589.313;1484
589.375;1489
589.438;1489
589.500;1489
589.563;1479
589.625;1486
589.688;1491
589.750;1491
589.813;1491
589.875;1489
589.938;1489
590.000;1494
590.063;1481
590.125;1491
590.188;1486
590.250;1481
590.313;1484
590.375;1484
590.438;1486
590.500;1474
590.563;1486
590.625;1481
590.688;1491
590.750;1479
590.813;1479
590.875;1491
590.938;1481
591.000;1477
591.063;1486
591.125;1481
591.188;1479
591.250;1481
591.313;1479
591.375;1491
591.438;1489
591.500;1477
591.563;1477
591.625;1477
591.688;1481
591.750;1474
591.813;1477
591.875;1486
591.938;1481
592.000;1491
592.063;1481
592.125;1491
592.188;1486
592.250;1486
592.313;1484
592.375;1474
592.438;1486
592.500;1481
592.563;1479
592.625;1484
592.688;1479
592.750;1481
592.813;1481
592.875;1481
592.938;1474
593.000;1467
593.063;1472
593.125;1484
593.188;1486
593.250;1484
593.313;1486
593.375;1484
593.438;1486
593.500;1481
593.563;1479
593.625;1489
593.688;1484
593.750;1484
593.813;1481
593.875;1481
593.938;1479
594.000;1484
594.063;1477
594.125;1484
594.188;1491
594.250;1484
594.313;1479
594.375;1486
594.438;1479
594.500;1491
594.563;1491
594.625;1484
594.688;1484
594.750;1481
594.813;1479
594.875;1484
594.938;1484
595.000;1477
595.063;1481
595.125;1486
595.188;1484
595.250;1474
595.313;1472
595.375;1484
595.438;1486
595.500;1474
595.563;1481
595.625;1474
595.688;1481
595.750;1481
595.813;1484
595.875;1472
595.938;1479
596.000;1477
596.063;1481
596.125;1479
596.188;1484
596.250;1486
596.313;1479
596.375;1491
596.438;1477
596.500;1489
596.563;1484
596.625;1481
596.688;1474
596.750;1479
596.813;1479
596.875;1489
596.938;1479
597.000;1481
597.063;1479
597.125;1481
597.188;1479
597.250;1481
597.313;1486
597.375;1484
597.438;1481
597.500;1474
597.563;1479
597.625;1489
597.688;1486
597.750;1477
597.813;1484
597.875;1479
597.938;1477
598.000;1484
598.063;1491
598.125;1484
598.188;1481
598.250;1481
598.313;1484
598.375;1479
598.438;1486
598.500;1474
598.563;1489
598.625;1481
598.688;1481
598.750;1481
598.813;1481
598.875;1479
598.938;1477
599.000;1477
599.063;1484
599.125;1491
599.188;1481
599.250;1477
599.313;1486
599.375;1489
599.438;1486
599.500;1484
599.563;1484
599.625;1484
599.688;1489
599.750;1484
599.813;1484
599.875;1491
599.938;1486
600.000;1486
600.063;1486
600.125;1486
600.188;1484
600.250;1484
600.313;1484
600.375;1481
600.438;1489
600.500;1486
600.563;1479
600.625;1484
600.688;1491
600.750;1491
600.813;1481
600.875;1486
600.938;1484
601.000;1491
601.063;1494
601.125;1491
601.188;1486
601.250;1491
601.313;1481
601.375;1484
601.438;1481
601.500;1477
601.563;1484
601.625;1489
601.688;1491
601.750;1489
601.813;1484
601.875;1479
601.938;1481
602.000;1486
602.063;1489
602.125;1479
602.188;1484
602.250;1479
602.313;1481
602.375;1481
602.438;1484
602.500;1481
602.563;1474
602.625;1477
602.688;1486
602.750;1481
602.813;1474
602.875;1484
602.938;1481
603.000;1479
603.063;1481
603.125;1479
603.188;1484
603.250;1491
603.313;1491
603.375;1491
603.438;1467
603.500;1479
603.563;1484
603.625;1484
603.688;1484
603.750;1489
603.813;1484
603.875;1481
603.938;1477
604.000;1479
604.063;1491
604.125;1491
604.188;1477
604.250;1479
604.313;1489
604.375;1477
604.438;1491
604.500;1484
604.563;1481
604.625;1484
604.688;1486
604.750;1491
604.813;1484
604.875;1489
604.938;1479
605.000;1484
605.063;1474
605.125;1484
605.188;1484
605.250;1486
605.313;1484
605.375;1472
605.438;1477
605.500;1484
605.563;1481
605.625;1477
605.688;1479
605.750;1477
605.813;1481
605.875;1469
605.938;1484
606.000;1484
606.063;1477
606.125;1481
606.188;1474
606.250;1481
606.313;1472
606.375;1467
606.438;1479
606.500;1474
606.563;1472
606.625;1474
606.688;1477
606.750;1481
606.813;1477
606.875;1486
606.938;1484
607.000;1484
607.063;1479
607.125;1491
607.188;1481
607.250;1477
607.313;1479
607.375;1481
607.438;1481
607.500;1467
607.563;1474
607.625;1477
607.688;1479
607.750;1486
607.813;1484
607.875;1474
607.938;1477
608.000;1477
608.063;1479
608.125;1484
608.188;1477
608.250;1479
608.313;1479
608.375;1484
608.438;1472
608.500;1479
608.563;1486
608.625;1486
608.688;1469
608.750;1484
608.813;1474
608.875;1484
608.938;1491
609.000;1481
609.063;1474
609.125;1474
609.188;1479
609.250;1481
609.313;1481
609.375;1481
609.438;1477
609.500;1472
609.563;1489
609.625;1479
609.688;1481
609.750;1491
609.813;1481
609.875;1486
609.938;1486
610.000;1484
610.063;1481
610.125;1481
610.188;1484
610.250;1477
610.313;1474
610.375;1486
610.438;1489
610.500;1479
610.563;1481
610.625;1481
610.688;1484
610.750;1477
610.813;1481
610.875;1489
610.938;1486
611.000;1479
611.063;1489
611.125;1489
611.188;1486
611.250;1486
611.313;1484
611.375;1486
611.438;1477
611.500;1484
611.563;1489
611.625;1477
611.688;1474
611.750;1491
611.813;1489
611.875;1481
611.938;1486
612.000;1474
612.063;1479
612.125;1481
612.188;1477
612.250;1484
612.313;1474
612.375;1481
612.438;1484
612.500;1484
612.563;1494
612.625;1481
612.688;1481
612.750;1481
612.813;1486
612.875;1489
612.938;1484
613.000;1481
613.063;1474
613.125;1484
613.188;1477
613.250;1481
613.313;1489
613.375;1481
613.438;1484
613.500;1486
613.563;1491
613.625;1491
613.688;1481
613.750;1491
613.813;1481
613.875;1484
613.938;1484
614.000;1481
614.063;1491
614.125;1486
614.188;1474
614.250;1484
614.313;1484
614.375;1484
614.438;1477
614.500;1486
614.563;1489
614.625;1479
614.688;1479
614.750;1484
614.813;1484
614.875;1479
614.938;1486
615.000;1479
615.063;1484
615.125;1474
615.188;1474
615.250;1474
615.313;1484
615.375;1481
615.438;1489
615.500;1484
615.563;1484
615.625;1489
615.688;1481
615.750;1484
615.813;1481
615.875;1477
615.938;1479
616.000;1484
616.063;1494
616.125;1489
616.188;1479
616.250;1489
616.313;1477
616.375;1479
616.438;1481
616.500;1474
616.563;1474
616.625;1484
616.688;1481
616.750;1479
616.813;1469
616.875;1481
616.938;1472
617.000;1474
617.063;1484
617.125;1484
617.188;1494
617.250;1484
617.313;1484
617.375;1469
617.438;1484
617.500;1491
617.563;1481
617.625;1481
617.688;1486
617.750;1484
617.813;1474
617.875;1481
617.938;1484
618.000;1486
618.063;1477
618.125;1477
618.188;1467
618.250;1484
618.313;1479
618.375;1479
618.438;1477
618.500;1481
618.563;1477
618.625;1486
618.688;1484
618.750;1481
618.813;1489
618.875;1484
618.938;1481
619.000;1489
619.063;1481
619.125;1481
619.188;1479
619.250;1481
619.313;1477
619.375;1474
619.438;1474
619.500;1481
619.563;1489
619.625;1479
619.688;1481
619.750;1486
619.813;1486
619.875;1479
619.938;1481
620.000;1477
620.063;1486
620.125;1474
620.188;1484
620.250;1489
620.313;1479
620.375;1479
620.438;1472
620.500;1477
620.563;1481
620.625;1481
620.688;1477
620.750;1481
620.813;1486
620.875;1486
620.938;1479
621.000;1474
621.063;1484
621.125;1467
621.188;1479
621.250;1474
621.313;1486
621.375;1479
621.438;1484
621.500;1486
621.563;1477
621.625;1469
621.688;1484
621.750;1484
621.813;1484
621.875;1477
621.938;1479
622.000;1481
622.063;1474
622.125;1474
622.188;1484
622.250;1479
622.313;1474
622.375;1484
622.438;1484
622.500;1477
622.563;1484
622.625;1486
622.688;1484
622.750;1484
622.813;1479
622.875;1484
622.938;1486
623.000;1479
623.063;1491
623.125;1484
623.188;1479
623.250;1479
623.313;1479
623.375;1477
623.438;1479
623.500;1484
623.563;1464
623.625;1481
623.688;1489
623.750;1481
623.813;1481
623.875;1484
623.938;1489
624.000;1486
624.063;1486
624.125;1489
624.188;1479
624.250;1489
624.313;1484
624.375;1491
624.438;1481
624.500;1481
624.563;1479
624.625;1489
624.688;1491
624.750;1481
624.813;1486
624.875;1486
624.938;1486
625.000;1486
625.063;1484
625.125;1486
625.188;1481
625.250;1481
625.313;1486
625.375;1484
625.438;1489
625.500;1481
625.563;1489
625.625;1481
625.688;1474
625.750;1484
625.813;1496
625.875;1491
625.938;1481
626.000;1486
626.063;1486
626.125;1481
626.188;1481
626.250;1489
626.313;1479
626.375;1486
626.438;1489
626.500;1479
626.563;1479
626.625;1484
626.688;1486
626.750;1484
626.813;1484
626.875;1489
626.938;1484
627.000;1494
627.063;1481
627.125;1481
627.188;1484
627.250;1479
627.313;1486
627.375;1486
627.438;1479
627.500;1481
627.563;1481
627.625;1489
627.688;1489
627.750;1484
627.813;1484
627.875;1477
627.938;1489
628.000;1481
628.063;1481
628.125;1481
628.188;1489
628.250;1481
628.313;1481
628.375;1484
628.438;1484
628.500;1486
628.563;1489
628.625;1491
628.688;1489
628.750;1481
628.813;1477
628.875;1479
628.938;1481
629.000;1479
629.063;1484
629.125;1481
629.188;1481
629.250;1477
629.313;1479
629.375;1477
629.438;1479
629.500;1484
629.563;1484
629.625;1486
629.688;1481
629.750;1477
629.813;1477
629.875;1481
629.938;1484
630.000;1494
630.063;1484
630.125;1489
630.188;1481
630.250;1474
630.313;1479
630.375;1484
630.438;1489
630.500;1479
630.563;1477
630.625;1484
630.688;1481
630.750;1491
630.813;1479
630.875;1472
630.938;1484
631.000;1484
631.063;1464
631.125;1491
631.188;1474
631.250;1481
631.313;1479
631.375;1479
631.438;1474
631.500;1479
631.563;1479
631.625;1486
631.688;1481
631.750;1484
631.813;1474
631.875;1479
631.938;1477
632.000;1481
632.063;1484
632.125;1479
632.188;1474
632.250;1481
632.313;1477
632.375;1481
632.438;1481
632.500;1481
632.563;1484
632.625;1467
632.688;1477
632.750;1477
632.813;1472
632.875;1481
632.938;1477
633.000;1486
633.063;1469
633.125;1484
633.188;1474
633.250;1481
633.313;1474
633.375;1486
633.438;1484
633.500;1479
633.563;1484
633.625;1477
633.688;1486
633.750;1489
633.813;1479
633.875;1474
633.938;1484
634.000;1484
634.063;1484
634.125;1486
634.188;1477
634.250;1477
634.313;1481
634.375;1479
634.438;1481
634.500;1477
634.563;1486
634.625;1474
634.688;1486
634.750;1489
634.813;1477
634.875;1481
634.938;1486
635.000;1477
635.063;1486
635.125;1484
635.188;1472
635.250;1481
635.313;1484
635.375;1477
635.438;1486
635.500;1481
635.563;1481
635.625;1484
635.688;1481
635.750;1484
635.813;1479
635.875;1472
635.938;1484
636.000;1484
636.063;1474
636.125;1484
636.188;1484
636.250;1486
636.313;1486
636.375;1481
636.438;1484
636.500;1481
636.563;1494
636.625;1472
636.688;1484
636.750;1474
636.813;1484
636.875;1486
636.938;1479
637.000;1484
637.063;1479
637.125;1479
637.188;1491
637.250;1486
637.313;1484
637.375;1481
637.438;1479
637.500;1484
637.563;1481
637.625;1486
637.688;1481
637.750;1481
637.813;1472
637.875;1481
637.938;1469
638.000;1479
638.063;1479
638.125;1477
638.188;1484
638.250;1486
638.313;1486
638.375;1489
638.438;1479
638.500;1486
638.563;1486
638.625;1479
638.688;1486
638.750;1481
638.813;1486
638.875;1491
638.938;1486
639.000;1484
639.063;1481
639.125;1479
639.188;1484
639.250;1479
639.313;1484
639.375;1481
639.438;1477
639.500;1481
639.563;1489
639.625;1481
639.688;1489
639.750;1481
639.813;1481
639.875;1484
639.938;1481
640.000;1491
640.063;1481
640.125;1484
640.188;1484
640.250;1479
640.313;1481
640.375;1484
640.438;1489
640.500;1481
640.563;1484
640.625;1484
640.688;1484
640.750;1477
640.813;1469
640.875;1479
640.938;1484
641.000;1491
641.063;1479
641.125;1484
641.188;1479
641.250;1481
641.313;1479
641.375;1491
641.438;1489
641.500;1479
641.563;1484
641.625;1486
641.688;1489
641.750;1479
641.813;1484
641.875;1489
641.938;1491
642.000;1484
642.063;1491
642.125;1486
642.188;1481
642.250;1479
642.313;1486
642.375;1481
642.438;1484
642.500;1484
642.563;1486
642.625;1481
642.688;1481
642.750;1481
642.813;1481
642.875;1479
642.938;1481
643.000;1486
643.063;1477
643.125;1474
643.188;1477
643.250;1472
643.313;1489
643.375;1477
643.438;1477
643.500;1484
643.563;1474
643.625;1489
643.688;1479
643.750;1489
643.813;1477
643.875;1477
643.938;1484
644.000;1489
644.063;1481
644.125;1481
644.188;1479
644.250;1481
644.313;1486
644.375;1472
644.438;1477
644.500;1477
644.563;1481
644.625;1484
644.688;1479
644.750;1481
644.813;1472
644.875;1489
644.938;1481
645.000;1479
645.063;1477
645.125;1477
645.188;1469
645.250;1477
645.313;1481
645.375;1486
645.438;1474
645.500;1486
645.563;1481
645.625;1479
645.688;1477
645.750;1479
645.813;1486
645.875;1477
645.938;1477
646.000;1481
646.063;1479
646.125;1484
646.188;1486
646.250;1489
646.313;1474
646.375;1479
646.438;1489
646.500;1481
646.563;1484
646.625;1489
646.688;1481
646.750;1486
646.813;1477
646.875;1486
646.938;1484
647.000;1484
647.063;1486
647.125;1481
647.188;1481
647.250;1479
647.313;1486
647.375;1489
647.438;1479
647.500;1486
647.563;1481
647.625;1474
647.688;1489
647.750;1484
647.813;1481
647.875;1486
647.938;1486
648.000;1481
648.063;1481
648.125;1484
648.188;1486
648.250;1486
648.313;1486
648.375;1484
648.438;1477
648.500;1484
648.563;1491
648.625;1486
648.688;1486
648.750;1489
648.813;1489
648.875;1481
648.938;1477
649.000;1477
649.063;1486
649.125;1481
649.188;1477
649.250;1489
649.313;1477
649.375;1489
649.438;1481
649.500;1486
649.563;1481
649.625;1484
649.688;1486
649.750;1486
649.813;1489
649.875;1496
649.938;1484
650.000;1479
650.063;1474
650.125;1474
650.188;1479
650.250;1486
650.313;1489
650.375;1489
650.438;1484
650.500;1484
650.563;1486
650.625;1481
650.688;1486
650.750;1494
650.813;1479
650.875;1486
650.938;1484
651.000;1484
651.063;1489
651.125;1481
651.188;1484
651.250;1479
651.313;1479
651.375;1489
651.438;1481
651.500;1484
651.563;1489
651.625;1489
651.688;1481
651.750;1484
651.813;1484
651.875;1494
651.938;1481
652.000;1481
652.063;1489
652.125;1486
652.188;1484
652.250;1484
652.313;1489
652.375;1481
652.438;1481
652.500;1489
652.563;1481
652.625;1486
652.688;1489
652.750;1484
652.813;1481
652.875;1489
652.938;1489
653.000;1494
653.063;1484
653.125;1489
653.188;1484
653.250;1477
653.313;1486
653.375;1481
653.438;1481
653.500;1486
653.563;1481
653.625;1484
653.688;1491
653.750;1481
653.813;1481
653.875;1489
653.938;1481
654.000;1486
654.063;1484
654.125;1481
654.188;1486
654.250;1484
654.313;1481
654.375;1477
654.438;1486
654.500;1486
654.563;1489
654.625;1479
654.688;1474
654.750;1486
654.813;1477
654.875;1477
654.938;1479
655.000;1489
655.063;1484
655.125;1479
655.188;1474
655.250;1479
655.313;1481
655.375;1481
655.438;1469
655.500;1472
655.563;1477
655.625;1474
655.688;1481
655.750;1486
655.813;1481
655.875;1481
655.938;1479
656.000;1477
656.063;1474
656.125;1479
656.188;1479
656.250;1479
656.313;1479
656.375;1481
656.438;1477
656.500;1474
656.563;1491
656.625;1481
656.688;1484
656.750;1474
656.813;1486
656.875;1477
656.938;1479
657.000;1479
657.063;1477
657.125;1479
657.188;1479
657.250;1484
657.313;1489
657.375;1481
657.438;1474
657.500;1484
657.563;1469
657.625;1484
657.688;1484
657.750;1481
657.813;1481
657.875;1467
657.938;1486
658.000;1484
658.063;1481
658.125;1484
658.188;1489
658.250;1484
658.313;1481
658.375;1474
658.438;1486
658.500;1472
658.563;1484
658.625;1481
658.688;1469
658.750;1474
658.813;1477
658.875;1474
658.938;1484
659.000;1486
659.063;1481
659.125;1481
659.188;1479
659.250;1484
659.313;1481
659.375;1484
659.438;1481
659.500;1481
659.563;1479
659.625;1469
659.688;1479
659.750;1477
659.813;1481
659.875;1484
659.938;1477
660.000;1484
660.063;1486
660.125;1472
660.188;1484
660.250;1481
660.313;1481
660.375;1491
660.438;1486
660.500;1481
660.563;1479
660.625;1481
660.688;1472
660.750;1494
660.813;1479
660.875;1486
660.938;1472
661.000;1491
661.063;1494
661.125;1491
661.188;1484
661.250;1481
661.313;1486
661.375;1486
661.438;1491
661.500;1467
661.563;1479
661.625;1489
661.688;1486
661.750;1477
661.813;1481
661.875;1479
661.938;1477
662.000;1484
662.063;1486
662.125;1486
662.188;1484
662.250;1489
662.313;1484
662.375;1481
662.438;1479
662.500;1479
662.563;1489
662.625;1481
662.688;1484
662.750;1494
662.813;1489
662.875;1484
662.938;1486
663.000;1479
663.063;1479
663.125;1481
663.188;1484
663.250;1486
663.313;1486
663.375;1474
663.438;1484
663.500;1486
663.563;1489
663.625;1484
663.688;1474
663.750;1486
663.813;1489
663.875;1484
663.938;1486
664.000;1484
664.063;1486
664.125;1484
664.188;1479
664.250;1484
664.313;1486
664.375;1477
664.438;1484
664.500;1484
664.563;1486
664.625;1484
664.688;1489
664.750;1489
664.813;1481
664.875;1484
664.938;1489
665.000;1477
665.063;1484
665.125;1484
665.188;1496
665.250;1479
665.313;1484
665.375;1479
665.438;1472
665.500;1479
665.563;1479
665.625;1479
665.688;1474
665.750;1477
665.813;1486
665.875;1479
665.938;1484
666.000;1481
666.063;1474
666.125;1479
666.188;1484
666.250;1479
666.313;1481
666.375;1474
666.438;1481
666.500;1477
666.563;1484
666.625;1484
666.688;1474
666.750;1477
666.813;1479
666.875;1474
666.938;1477
667.000;1479
667.063;1479
667.125;1481
667.188;1477
667.250;1481
667.313;1486
667.375;1477
667.438;1479
667.500;1477
667.563;1479
667.625;1477
667.688;1479
667.750;1484
667.813;1472
667.875;1477
667.938;1472
668.000;1479
668.063;1474
668.125;1477
668.188;1484
668.250;1481
668.313;1472
668.375;1477
668.438;1477
668.500;1481
668.563;1481
668.625;1481
668.688;1474
668.750;1479
668.813;1484
668.875;1479
668.938;1477
669.000;1474
669.063;1479
669.125;1491
669.188;1479
669.250;1472
669.313;1481
669.375;1479
669.438;1481
669.500;1481
669.563;1472
669.625;1477
669.688;1481
669.750;1469
669.813;1479
669.875;1481
669.938;1481
670.000;1481
670.063;1481
670.125;1481
670.188;1486
670.250;1499
670.313;1479
670.375;1486
670.438;1477
670.500;1472
670.563;1486
670.625;1472
670.688;1489
670.750;1474
670.813;1481
670.875;1481
670.938;1477
671.000;1479
671.063;1481
671.125;1486
671.188;1479
671.250;1484
671.313;1484
671.375;1484
671.438;1477
671.500;1486
671.563;1484
671.625;1484
671.688;1477
671.750;1477
671.813;1486
671.875;1481
671.938;1484
672.000;1474
672.063;1479
672.125;1489
672.188;1477
672.250;1472
672.313;1484
672.375;1484
672.438;1479
672.500;1479
672.563;1479
672.625;1472
672.688;1486
672.750;1479
672.813;1477
672.875;1484
672.938;1484
673.000;1479
673.063;1477
673.125;1481
673.188;1486
673.250;1486
673.313;1481
673.375;1484
673.438;1484
673.500;1484
673.563;1479
673.625;1481
673.688;1489
673.750;1484
673.813;1481
673.875;1486
673.938;1484
674.000;1484
674.063;1481
674.125;1481
674.188;1479
674.250;1481
674.313;1496
674.375;1481
674.438;1479
674.500;1486
674.563;1489
674.625;1484
674.688;1484
674.750;1484
674.813;1496
674.875;1479
674.938;1491
675.000;1489
675.063;1494
675.125;1481
675.188;1484
675.250;1481
675.313;1477
675.375;1486
675.438;1477
675.500;1489
675.563;1484
675.625;1486
675.688;1486
675.750;1489
675.813;1484
675.875;1489
675.938;1481
676.000;1489
676.063;1479
676.125;1481
676.188;1481
676.250;1477
676.313;1491
676.375;1484
676.438;1486
676.500;1484
676.563;1486
676.625;1489
676.688;1489
676.750;1489
676.813;1481
676.875;1486
676.938;1486
677.000;1486
677.063;1481
677.125;1484
677.188;1486
677.250;1484
677.313;1499
677.375;1484
677.438;1489
677.500;1477
677.563;1496
677.625;1486
677.688;1484
677.750;1484
677.813;1489
677.875;1491
677.938;1486
678.000;1479
678.063;1481
678.125;1481
678.188;1486
678.250;1489
678.313;1481
678.375;1484
678.438;1481
678.500;1484
678.563;1474
678.625;1481
678.688;1479
678.750;1491
678.813;1491
678.875;1484
678.938;1484
679.000;1481
679.063;1481
679.125;1486
679.188;1479
679.250;1481
679.313;1479
679.375;1481
679.438;1479
679.500;1479
679.563;1486
679.625;1474
679.688;1489
679.750;1479
679.813;1479
679.875;1481
679.938;1489
680.000;1484
680.063;1474
680.125;1484
680.188;1484
680.250;1481
680.313;1474
680.375;1481
680.438;1481
680.500;1489
680.563;1479
680.625;1481
680.688;1486
680.750;1486
680.813;1477
680.875;1484
680.938;1479
681.000;1486
681.063;1472
681.125;1484
681.188;1474
681.250;1479
681.313;1494
681.375;1481
681.438;1474
681.500;1479
681.563;1474
681.625;1481
681.688;1479
681.750;1472
681.813;1474
681.875;1486
681.938;1479
682.000;1481
682.063;1486
682.125;1474
682.188;1484
682.250;1481
682.313;1477
682.375;1484
682.438;1479
682.500;1479
682.563;1477
682.625;1479
682.688;1474
682.750;1481
682.813;1477
682.875;1477
682.938;1479
683.000;1489
683.063;1474
683.125;1481
683.188;1481
683.250;1474
683.313;1481
683.375;1477
683.438;1474
683.500;1491
683.563;1474
683.625;1484
683.688;1481
683.750;1472
683.813;1472
683.875;1491
683.938;1484
684.000;1472
684.063;1486
684.125;1474
684.188;1489
684.250;1481
684.313;1481
684.375;1477
684.438;1474
684.500;1489
684.563;1489
684.625;1491
684.688;1474
684.750;1484
684.813;1486
684.875;1484
684.938;1486
685.000;1486
685.063;1486
685.125;1479
685.188;1481
685.250;1486
685.313;1481
685.375;1467
685.438;1481
685.500;1481
685.563;1477
685.625;1474
685.688;1486
685.750;1479
685.813;1479
685.875;1481
685.938;1491
686.000;1484
686.063;1494
686.125;1489
686.188;1486
686.250;1486
686.313;1489
686.375;1489
686.438;1486
686.500;1479
686.563;1491
686.625;1484
686.688;1479
686.750;1484
686.813;1496
686.875;1491
686.938;1481
687.000;1486
687.063;1484
687.125;1484
687.188;1491
687.250;1489
687.313;1484
687.375;1491
687.438;1484
687.500;1491
687.563;1484
687.625;1481
687.688;1486
687.750;1481
687.813;1479
687.875;1481
687.938;1491
688.000;1484
688.063;1481
688.125;1484
688.188;1486
688.250;1474
688.313;1481
688.375;1481
688.438;1477
688.500;1484
688.563;1494
688.625;1481
688.688;1477
688.750;1489
688.813;1491
688.875;1484
688.938;1479
689.000;1484
689.063;1481
689.125;1486
689.188;1481
689.250;1474
689.313;1484
689.375;1484
689.438;1486
689.500;1491
689.563;1484
689.625;1484
689.688;1474
689.750;1481
689.813;1491
689.875;1481
689.938;1486
690.000;1474
690.063;1481
690.125;1479
690.188;1491
690.250;1484
690.313;1486
690.375;1479
690.438;1481
690.500;1477
690.563;1486
690.625;1477
690.688;1472
690.750;1477
690.813;1486
690.875;1481
690.938;1481
691.000;1479
691.063;1489
691.125;1481
691.188;1481
691.250;1477
691.313;1486
691.375;1472
691.438;1484
691.500;1481
691.563;1477
691.625;1469
691.688;1484
691.750;1481
691.813;1479
691.875;1481
691.938;1479
692.000;1481
692.063;1481
692.125;1477
692.188;1477
692.250;1474
692.313;1479
692.375;1481
692.438;1481
692.500;1472
692.563;1479
692.625;1486
692.688;1479
692.750;1486
692.813;1481
692.875;1486
692.938;1477
693.000;1479
693.063;1477
693.125;1472
693.188;1472
693.250;1469
693.313;1486
693.375;1477
693.438;1472
693.500;1477
693.563;1484
693.625;1474
693.688;1474
693.750;1467
693.813;1477
693.875;1469
693.938;1472
694.000;1481
694.063;1481
694.125;1474
694.188;1477
694.250;1481
694.313;1484
694.375;1477
694.438;1477
694.500;1484
694.563;1474
694.625;1481
694.688;1481
694.750;1481
694.813;1474
694.875;1481
694.938;1481
695.000;1481
695.063;1481
695.125;1481
695.188;1486
695.250;1477
695.313;1481
695.375;1484
695.438;1481
695.500;1472
695.563;1479
695.625;1481
695.688;1479
695.750;1479
695.813;1477
695.875;1489
695.938;1477
696.000;1479
696.063;1491
696.125;1477
696.188;1479
696.250;1486
696.313;1481
696.375;1481
696.438;1477
696.500;1484
696.563;1481
696.625;1481
696.688;1481
696.750;1489
696.813;1484
696.875;1484
696.938;1484
697.000;1479
697.063;1489
697.125;1477
697.188;1481
697.250;1479
697.313;1494
697.375;1484
697.438;1474
697.500;1479
697.563;1479
697.625;1481
697.688;1484
697.750;1489
697.813;1484
697.875;1491
697.938;1481
698.000;1484
698.063;1491
698.125;1486
698.188;1481
698.250;1491
698.313;1479
698.375;1484
698.438;1491
698.500;1484
698.563;1479
698.625;1491
698.688;1489
698.750;1481
698.813;1491
698.875;1484
698.938;1491
699.000;1481
699.063;1481
699.125;1489
699.188;1486
699.250;1496
699.313;1484
699.375;1479
699.438;1481
699.500;1474
699.563;1486
699.625;1489
699.688;1491
699.750;1494
699.813;1481
699.875;1479
699.938;1484
700.000;1489
700.063;1481
700.125;1489
700.188;1499
700.250;1477
700.313;1481
700.375;1479
700.438;1489
700.500;1484
700.563;1489
700.625;1484
700.688;1486
700.750;1481
700.813;1486
700.875;1486
700.938;1484
701.000;1479
701.063;1484
701.125;1494
701.188;1489
701.250;1484
701.313;1494
701.375;1489
701.438;1481
701.500;1479
701.563;1479
701.625;1486
701.688;1484
701.750;1491
701.813;1479
701.875;1486
701.938;1481
702.000;1486
702.063;1484
702.125;1491
702.188;1489
702.250;1486
702.313;1469
702.375;1484
702.438;1484
702.500;1484
702.563;1481
702.625;1479
702.688;1481
702.750;1484
702.813;1484
702.875;1479
702.938;1477
703.000;1484
703.063;1474
703.125;1479
703.188;1486
703.250;1486
703.313;1472
703.375;1477
703.438;1477
703.500;1469
703.563;1474
703.625;1486
703.688;1477
703.750;1479
703.813;1491
703.875;1472
703.938;1467
704.000;1489
704.063;1472
704.125;1474
704.188;1484
704.250;1477
704.313;1481
704.375;1489
704.438;1469
704.500;1477
704.563;1484
704.625;1477
704.688;1481
704.750;1479
704.813;1477
704.875;1479
704.938;1474
705.000;1472
705.063;1479
705.125;1469
705.188;1481
705.250;1479
705.313;1472
705.375;1477
705.438;1479
705.500;1474
705.563;1464
705.625;1467
705.688;1479
705.750;1479
705.813;1472
705.875;1467
705.938;1467
706.000;1472
706.063;1491
706.125;1481
706.188;1481
706.250;1479
706.313;1472
706.375;1474
706.438;1469
706.500;1479
706.563;1469
706.625;1477
706.688;1481
706.750;1474
706.813;1462
706.875;1472
706.938;1484
707.000;1467
707.063;1477
707.125;1469
707.188;1469
707.250;1479
707.313;1472
707.375;1467
707.438;1474
707.500;1484
707.563;1474
707.625;1479
707.688;1481
707.750;1481
707.813;1477
707.875;1464
707.938;1477
708.000;1477
708.063;1479
708.125;1479
708.188;1486
708.250;1486
708.313;1477
708.375;1479
708.438;1484
708.500;1472
708.563;1481
708.625;1484
708.688;1472
708.750;1477
708.813;1474
708.875;1472
708.938;1479
709.000;1484
709.063;1481
709.125;1481
709.188;1477
709.250;1486
709.313;1486
709.375;1477
709.438;1481
709.500;1474
709.563;1481
709.625;1484
709.688;1474
709.750;1479
709.813;1477
709.875;1481
709.938;1477
710.000;1484
710.063;1469
710.125;1472
710.188;1477
710.250;1481
710.313;1484
710.375;1477
710.438;1472
710.500;1479
710.563;1479
710.625;1486
710.688;1489
710.750;1481
710.813;1481
710.875;1479
710.938;1491
711.000;1472
711.063;1486
711.125;1472
711.188;1479
711.250;1474
711.313;1481
711.375;1489
711.438;1486
711.500;1479
711.563;1484
711.625;1479
711.688;1484
711.750;1484
711.813;1481
711.875;1477
711.938;1481
712.000;1486
712.063;1479
712.125;1479
712.188;1477
712.250;1477
712.313;1481
712.375;1481
712.438;1484
712.500;1491
712.563;1484
712.625;1484
712.688;1481
712.750;1481
712.813;1484
712.875;1479
712.938;1484
713.000;1484
713.063;1484
713.125;1477
713.188;1477
713.250;1486
713.313;1484
713.375;1484
713.438;1479
713.500;1477
713.563;1481
713.625;1477
713.688;1477
713.750;1484
713.813;1479
713.875;1489
713.938;1484
714.000;1484
714.063;1481
714.125;1479
714.188;1489
714.250;1479
714.313;1477
714.375;1477
714.438;1474
714.500;1486
714.563;1481
714.625;1484
714.688;1474
714.750;1484
714.813;1481
714.875;1479
714.938;1474
715.000;1481
715.063;1474
715.125;1489
715.188;1481
715.250;1472
715.313;1472
715.375;1472
715.438;1474
715.500;1479
715.563;1477
715.625;1479
715.688;1479
715.750;1484
715.813;1486
715.875;1474
715.938;1477
716.000;1479
716.063;1477
716.125;1477
716.188;1474
716.250;1481
716.313;1481
716.375;1474
716.438;1469
716.500;1474
716.563;1479
716.625;1469
716.688;1472
716.750;1481
716.813;1467
716.875;1474
716.938;1477
717.000;1472
717.063;1477
717.125;1479
717.188;1479
717.250;1467
717.313;1479
717.375;1479
717.438;1477
717.500;1477
717.563;1474
717.625;1477
717.688;1477
717.750;1479
717.813;1477
717.875;1479
717.938;1477
718.000;1477
718.063;1477
718.125;1481
718.188;1481
718.250;1477
718.313;1477
718.375;1477
718.438;1474
718.500;1489
718.563;1479
718.625;1477
718.688;1472
718.750;1474
718.813;1479
718.875;1477
718.938;1479
719.000;1472
719.063;1479
719.125;1474
719.188;1477
719.250;1477
719.313;1481
719.375;1472
719.438;1477
719.500;1474
719.563;1479
719.625;1474
719.688;1477
719.750;1479
719.813;1469
719.875;1481
719.938;1481
720.000;1479
720.063;1479
720.125;1472
720.188;1474
720.250;1477
720.313;1477
720.375;1477
720.438;1479
720.500;1479
720.563;1477
720.625;1474
720.688;1477
720.750;1484
720.813;1477
720.875;1481
720.938;1477
721.000;1486
721.063;1477
721.125;1489
721.188;1481
721.250;1481
721.313;1489
721.375;1479
721.438;1481
721.500;1472
721.563;1474
721.625;1481
721.688;1486
721.750;1481
721.813;1484
721.875;1481
721.938;1491
722.000;1489
722.063;1486
722.125;1489
722.188;1496
722.250;1486
722.313;1484
722.375;1479
722.438;1484
722.500;1486
722.563;1474
722.625;1479
722.688;1479
722.750;1481
722.813;1481
722.875;1491
722.938;1484
723.000;1472
723.063;1479
723.125;1489
723.188;1489
723.250;1479
723.313;1479
723.375;1479
723.438;1481
723.500;1484
723.563;1489
723.625;1479
723.688;1479
723.750;1484
723.813;1479
723.875;1486
723.938;1484
724.000;1481
724.063;1484
724.125;1479
724.188;1477
724.250;1484
724.313;1489
724.375;1486
724.438;1484
724.500;1491
724.563;1491
724.625;1486
724.688;1486
724.750;1484
724.813;1474
724.875;1491
724.938;1474
725.000;1484
725.063;1489
725.125;1484
725.188;1491
725.250;1489
725.313;1486
725.375;1479
725.438;1477
725.500;1491
725.563;1479
725.625;1486
725.688;1486
725.750;1494
725.813;1477
725.875;1484
725.938;1484
726.000;1479
726.063;1477
726.125;1479
726.188;1481
726.250;1477
726.313;1484
726.375;1467
726.438;1481
726.500;1486
726.563;1486
726.625;1481
726.688;1474
726.750;1477
726.813;1477
726.875;1484
726.938;1481
727.000;1489
727.063;1474
727.125;1479
727.188;1484
727.250;1481
727.313;1481
727.375;1486
727.438;1486
727.500;1486
727.563;1481
727.625;1472
727.688;1479
727.750;1484
727.813;1489
727.875;1474
727.938;1479
728.000;1477
728.063;1489
728.125;1491
728.188;1477
728.250;1474
728.313;1474
728.375;1477
728.438;1486
728.500;1474
728.563;1484
728.625;1486
728.688;1484
728.750;1484
728.813;1469
728.875;1481
728.938;1467
729.000;1479
729.063;1494
729.125;1491
729.188;1484
729.250;1474
729.313;1484
729.375;1481
729.438;1474
729.500;1489
729.563;1474
729.625;1474
729.688;1472
729.750;1474
729.813;1481
729.875;1472
729.938;1474
730.000;1479
730.063;1479
730.125;1474
730.188;1486
730.250;1481
730.313;1486
730.375;1472
730.438;1477
730.500;1474
730.563;1479
730.625;1479
730.688;1479
730.750;1479
730.813;1486
730.875;1479
730.938;1472
731.000;1474
731.063;1477
731.125;1479
731.188;1484
731.250;1472
731.313;1472
731.375;1474
731.438;1467
731.500;1477
731.563;1479
731.625;1477
731.688;1474
731.750;1484
731.813;1484
731.875;1481
731.938;1472
732.000;1484
732.063;1479
732.125;1481
732.188;1479
732.250;1481
732.313;1484
732.375;1479
732.438;1477
732.500;1474
732.563;1474
732.625;1481
732.688;1486
732.750;1481
732.813;1484
732.875;1479
732.938;1484
733.000;1474
733.063;1484
733.125;1484
733.188;1477
733.250;1477
733.313;1489
733.375;1486
733.438;1477
733.500;1477
733.563;1491
733.625;1481
733.688;1479
733.750;1481
733.813;1477
733.875;1484
733.938;1496
734.000;1481
734.063;1489
734.125;1484
734.188;1491
734.250;1484
734.313;1481
734.375;1486
734.438;1479
734.500;1484
734.563;1486
734.625;1486
734.688;1486
734.750;1484
734.813;1477
734.875;1477
734.938;1486
735.000;1479
735.063;1481
735.125;1486
735.188;1489
735.250;1491
735.313;1489
735.375;1494
735.438;1484
735.500;1486
735.563;1491
735.625;1494
735.688;1496
735.750;1481
735.813;1486
735.875;1481
735.938;1484
736.000;1489
736.063;1499
736.125;1481
736.188;1486
736.250;1486
736.313;1491
736.375;1477
736.438;1496
736.500;1479
736.563;1479
736.625;1481
736.688;1484
736.750;1489
736.813;1489
736.875;1491
736.938;1484
737.000;1486
737.063;1484
737.125;1486
737.188;1484
737.250;1486
737.313;1486
737.375;1491
737.438;1484
737.500;1479
737.563;1486
737.625;1484
737.688;1484
737.750;1479
737.813;1484
737.875;1481
737.938;1484
738.000;1479
738.063;1481
738.125;1489
738.188;1486
738.250;1484
738.313;1499
738.375;1491
738.438;1481
738.500;1474
738.563;1486
738.625;1486
738.688;1491
738.750;1481
738.813;1489
738.875;1486
738.938;1486
739.000;1477
739.063;1481
739.125;1486
739.188;1481
739.250;1477
739.313;1474
739.375;1477
739.438;1477
739.500;1481
739.563;1481
739.625;1489
739.688;1491
739.750;1489
739.813;1479
739.875;1477
739.938;1484
740.000;1477
740.063;1484
740.125;1489
740.188;1479
740.250;1474
740.313;1481
740.375;1472
740.438;1486
740.500;1481
740.563;1484
740.625;1479
740.688;1472
740.750;1486
740.813;1479
740.875;1481
740.938;1484
741.000;1481
741.063;1477
741.125;1484
741.188;1477
741.250;1479
741.313;1479
741.375;1477
741.438;1481
741.500;1479
741.563;1481
741.625;1489
741.688;1484
741.750;1486
741.813;1489
741.875;1474
741.938;1479
742.000;1479
742.063;1491
742.125;1481
742.188;1477
742.250;1474
742.313;1472
742.375;1479
742.438;1479
742.500;1477
742.563;1484
742.625;1479
742.688;1474
742.750;1474
742.813;1479
742.875;1477
742.938;1477
743.000;1481
743.063;1474
743.125;1491
743.188;1491
743.250;1474
743.313;1486
743.375;1481
743.438;1484
743.500;1481
743.563;1481
743.625;1479
743.688;1484
743.750;1489
743.813;1481
743.875;1486
743.938;1494
744.000;1474
744.063;1486
744.125;1494
744.188;1472
744.250;1486
744.313;1479
744.375;1481
744.438;1484
744.500;1479
744.563;1479
744.625;1486
744.688;1472
744.750;1484
744.813;1486
744.875;1477
744.938;1486
745.000;1489
745.063;1489
745.125;1489
745.188;1474
745.250;1494
745.313;1491
745.375;1477
745.438;1481
745.500;1484
745.563;1484
745.625;1484
745.688;1481
745.750;1474
745.813;1481
745.875;1481
745.938;1494
746.000;1486
746.063;1484
746.125;1472
746.188;1491
746.250;1494
746.313;1484
746.375;1481
746.438;1479
746.500;1479
746.563;1489
746.625;1486
746.688;1481
746.750;1481
746.813;1481
746.875;1499
746.938;1481
747.000;1491
747.063;1481
747.125;1486
747.188;1491
747.250;1479
747.313;1486
747.375;1491
747.438;1474
747.500;1491
747.563;1491
747.625;1479
747.688;1486
747.750;1489
747.813;1484
747.875;1481
747.938;1489
748.000;1486
748.063;1491
748.125;1484
748.188;1491
748.250;1491
748.313;1484
748.375;1479
748.438;1491
748.500;1491
748.563;1491
748.625;1489
748.688;1481
748.750;1499
748.813;1481
748.875;1489
748.938;1494
749.000;1494
749.063;1486
749.125;1491
749.188;1489
749.250;1479
749.313;1489
749.375;1484
749.438;1486
749.500;1491
749.563;1484
749.625;1474
749.688;1486
749.750;1486
749.813;1479
749.875;1494
749.938;1489
750.000;1496
750.063;1477
750.125;1489
750.188;1499
750.250;1484
750.313;1484
750.375;1496
750.438;1489
750.500;1489
750.563;1489
750.625;1479
750.688;1491
750.750;1496
750.813;1486
750.875;1489
750.938;1477
751.000;1479
751.063;1474
751.125;1479
751.188;1486
751.250;1481
751.313;1479
751.375;1489
751.438;1484
751.500;1486
751.563;1489
751.625;1491
751.688;1481
751.750;1484
751.813;1479
751.875;1481
751.938;1481
752.000;1484
752.063;1474
752.125;1477
752.188;1494
752.250;1477
752.313;1477
752.375;1484
752.438;1469
752.500;1484
752.563;1486
752.625;1486
752.688;1486
752.750;1484
752.813;1479
752.875;1484
752.938;1481
753.000;1481
753.063;1489
753.125;1479
753.188;1491
753.250;1481
753.313;1486
753.375;1486
753.438;1477
753.500;1474
753.563;1479
753.625;1474
753.688;1486
753.750;1484
753.813;1486
753.875;1479
753.938;1479
754.000;1469
754.063;1481
754.125;1489
754.188;1472
754.250;1481
754.313;1474
754.375;1472
754.438;1484
754.500;1496
754.563;1474
754.625;1481
754.688;1479
754.750;1479
754.813;1479
754.875;1486
754.938;1477
755.000;1477
755.063;1484
755.125;1472
755.188;1484
755.250;1469
755.313;1491
755.375;1481
755.438;1486
755.500;1484
755.563;1481
755.625;1481
755.688;1484
755.750;1472
755.813;1477
755.875;1481
755.938;1481
756.000;1486
756.063;1491
756.125;1479
756.188;1481
756.250;1481
756.313;1474
756.375;1486
756.438;1477
756.500;1484
756.563;1489
756.625;1489
756.688;1484
756.750;1489
756.813;1477
756.875;1491
756.938;1477
757.000;1477
757.063;1484
757.125;1481
757.188;1484
757.250;1489
757.313;1489
757.375;1479
757.438;1491
757.500;1481
757.563;1489
757.625;1486
757.688;1474
757.750;1481
757.813;1486
757.875;1491
757.938;1481
758.000;1479
758.063;1496
758.125;1484
758.188;1486
758.250;1486
758.313;1481
758.375;1484
758.438;1489
758.500;1484
758.563;1491
758.625;1496
758.688;1481
758.750;1479
758.813;1491
758.875;1484
758.938;1481
759.000;1494
759.063;1486
759.125;1489
759.188;1494
759.250;1489
759.313;1491
759.375;1486
759.438;1477
759.500;1479
759.563;1489
759.625;1491
759.688;1486
759.750;1486
759.813;1486
759.875;1489
759.938;1494
760.000;1486
760.063;1481
760.125;1484
760.188;1489
760.250;1477
760.313;1484
760.375;1486
760.438;1491
760.500;1494
760.563;1486
760.625;1489
760.688;1489
760.750;1484
760.813;1489
760.875;1486
760.938;1496
761.000;1481
761.063;1481
761.125;1484
761.188;1481
761.250;1491
761.313;1481
761.375;1479
761.438;1479
761.500;1484
761.563;1489
761.625;1486
761.688;1484
761.750;1484
761.813;1494
761.875;1486
761.938;1484
762.000;1486
762.063;1491
762.125;1484
762.188;1489
762.250;1481
762.313;1489
762.375;1486
762.438;1486
762.500;1491
762.563;1484
762.625;1481
762.688;1484
762.750;1481
762.813;1479
762.875;1486
762.938;1477
763.000;1481
763.063;1486
763.125;1484
763.188;1489
763.250;1484
763.313;1491
763.375;1479
763.438;1486
763.500;1489
763.563;1494
763.625;1491
763.688;1479
763.750;1494
763.813;1484
763.875;1484
763.938;1481
764.000;1486
764.063;1481
764.125;1489
764.188;1486
764.250;1477
764.313;1489
764.375;1484
764.438;1486
764.500;1494
764.563;1486
764.625;1486
764.688;1491
764.750;1489
764.813;1489
764.875;1481
764.938;1484
765.000;1479
765.063;1479
765.125;1472
765.188;1479
765.250;1484
765.313;1481
765.375;1481
765.438;1484
765.500;1484
765.563;1479
765.625;1484
765.688;1489
765.750;1472
765.813;1481
765.875;1477
765.938;1486
766.000;1486
766.063;1496
766.125;1486
766.188;1479
766.250;1486
766.313;1479
766.375;1486
766.438;1477
766.500;1484
766.563;1484
766.625;1486
766.688;1486
766.750;1479
766.813;1486
766.875;1484
766.938;1489
767.000;1486
767.063;1486
767.125;1491
767.188;1489
767.250;1481
767.313;1479
767.375;1481
767.438;1484
767.500;1481
767.563;1464
767.625;1481
767.688;1479
767.750;1479
767.813;1486
767.875;1484
767.938;1469
768.000;1484
768.063;1481
768.125;1489
768.188;1477
768.250;1484
768.313;1486
768.375;1486
768.438;1484
768.500;1491
768.563;1489
768.625;1486
768.688;1486
768.750;1489
768.813;1481
768.875;1484
768.938;1489
769.000;1489
769.063;1494
769.125;1489
769.188;1486
769.250;1486
769.313;1489
769.375;1484
769.438;1484
769.500;1484
769.563;1486
769.625;1494
769.688;1484
769.750;1486
769.813;1489
769.875;1494
769.938;1491
770.000;1486
770.063;1489
770.125;1481
770.188;1491
770.250;1491
770.313;1499
770.375;1486
770.438;1477
770.500;1486
770.563;1491
770.625;1491
770.688;1484
770.750;1484
770.813;1499
770.875;1494
770.938;1494
771.000;1484
771.063;1477
771.125;1486
771.188;1486
771.250;1484
771.313;1491
771.375;1494
771.438;1491
771.500;1489
771.563;1499
771.625;1494
771.688;1486
771.750;1486
771.813;1494
771.875;1489
771.938;1489
772.000;1486
772.063;1486
772.125;1494
772.188;1486
772.250;1499
772.313;1491
772.375;1479
772.438;1486
772.500;1494
772.563;1489
772.625;1494
772.688;1499
772.750;1481
772.813;1481
772.875;1489
772.938;1494
773.000;1481
773.063;1499
773.125;1499
773.188;1496
773.250;1486
773.313;1489
773.375;1491
773.438;1481
773.500;1489
773.563;1489
773.625;1491
773.688;1484
773.750;1486
773.813;1491
773.875;1489
773.938;1484
774.000;1486
774.063;1486
774.125;1484
774.188;1484
774.250;1489
774.313;1484
774.375;1489
774.438;1481
774.500;1486
774.563;1489
774.625;1491
774.688;1481
774.750;1484
774.813;1484
774.875;1489
774.938;1496
775.000;1486
775.063;1477
775.125;1489
775.188;1484
775.250;1491
775.313;1484
775.375;1494
775.438;1486
775.500;1489
775.563;1484
775.625;1474
775.688;1489
775.750;1489
775.813;1486
775.875;1481
775.938;1486
776.000;1484
776.063;1486
776.125;1484
776.188;1494
776.250;1491
776.313;1484
776.375;1489
776.438;1486
776.500;1491
776.563;1496
776.625;1489
776.688;1484
776.750;1484
776.813;1486
776.875;1494
776.938;1486
777.000;1489
777.063;1484
777.125;1494
777.188;1484
777.250;1489
777.313;1474
777.375;1494
777.438;1484
777.500;1494
777.563;1479
777.625;1477
777.688;1481
777.750;1486
777.813;1481
777.875;1486
777.938;1481
778.000;1481
778.063;1477
778.125;1481
778.188;1474
778.250;1474
778.313;1489
778.375;1481
778.438;1486
778.500;1486
778.563;1481
778.625;1486
778.688;1484
778.750;1474
778.813;1479
778.875;1479
778.938;1489
779.000;1486
779.063;1489
779.125;1477
779.188;1491
779.250;1479
779.313;1479
779.375;1496
779.438;1477
779.500;1486
779.563;1479
779.625;1472
779.688;1491
779.750;1489
779.813;1489
779.875;1486
779.938;1484
780.000;1489
780.063;1489
780.125;1481
780.188;1491
780.250;1486
780.313;1486
780.375;1479
780.438;1481
780.500;1477
780.563;1479
780.625;1479
780.688;1491
780.750;1489
780.813;1481
780.875;1484
780.938;1489
781.000;1491
781.063;1486
781.125;1491
781.188;1486
781.250;1484
781.313;1489
781.375;1494
781.438;1486
781.500;1486
781.563;1489
781.625;1491
781.688;1491
781.750;1491
781.813;1491
781.875;1486
781.938;1489
782.000;1494
782.063;1489
782.125;1499
782.188;1486
782.250;1494
782.313;1494
782.375;1494
782.438;1491
782.500;1496
782.563;1486
782.625;1491
782.688;1499
782.750;1494
782.813;1484
782.875;1491
782.938;1481
783.000;1489
783.063;1484
783.125;1486
783.188;1489
783.250;1491
783.313;1486
783.375;1494
783.438;1486
783.500;1484
783.563;1491
783.625;1489
783.688;1489
783.750;1501
783.813;1486
783.875;1499
783.938;1491
784.000;1503
784.063;1489
784.125;1496
784.188;1491
784.250;1486
784.313;1491
784.375;1499
784.438;1496
784.500;1484
784.563;1489
784.625;1489
784.688;1494
784.750;1494
784.813;1499
784.875;1491
784.938;1491
785.000;1489
785.063;1491
785.125;1494
785.188;1491
785.250;1489
785.313;1486
785.375;1494
785.438;1491
785.500;1491
785.563;1489
785.625;1484
785.688;1496
785.750;1496
785.813;1494
785.875;1499
785.938;1489
786.000;1496
786.063;1496
786.125;1491
786.188;1491
786.250;1484
786.313;1489
786.375;1499
786.438;1491
786.500;1496
786.563;1489
786.625;1494
786.688;1486
786.750;1494
786.813;1501
786.875;1489
786.938;1491
787.000;1489
787.063;1494
787.125;1491
787.188;1494
787.250;1496
787.313;1499
787.375;1491
787.438;1484
787.500;1494
787.563;1496
787.625;1494
787.688;1491
787.750;1489
787.813;1486
787.875;1501
787.938;1486
788.000;1486
788.063;1491
788.125;1484
788.188;1494
788.250;1486
788.313;1491
788.375;1499
788.438;1494
788.500;1494
788.563;1491
788.625;1496
788.688;1491
788.750;1494
788.813;1484
788.875;1501
788.938;1489
789.000;1484
789.063;1494
789.125;1494
789.188;1494
789.250;1489
789.313;1486
789.375;1496
789.438;1477
789.500;1496
789.563;1494
789.625;1496
789.688;1494
789.750;1486
789.813;1484
789.875;1486
789.938;1484
790.000;1484
790.063;1494
790.125;1491
790.188;1491
790.250;1496
790.313;1491
790.375;1491
790.438;1486
790.500;1484
790.563;1496
790.625;1484
790.688;1489
790.750;1489
790.813;1486
790.875;1484
790.938;1489
791.000;1491
791.063;1479
791.125;1491
791.188;1494
791.250;1491
791.313;1499
791.375;1491
791.438;1479
791.500;1489
791.563;1484
791.625;1496
791.688;1486
791.750;1491
791.813;1489
791.875;1479
791.938;1491
792.000;1494
792.063;1484
792.125;1491
792.188;1499
792.250;1499
792.313;1494
792.375;1499
792.438;1486
792.500;1486
792.563;1486
792.625;1486
792.688;1496
792.750;1481
792.813;1494
792.875;1494
792.938;1496
793.000;1486
793.063;1489
793.125;1494
793.188;1491
793.250;1494
793.313;1494
793.375;1491
793.438;1494
793.500;1499
793.563;1489
793.625;1501
793.688;1494
793.750;1496
793.813;1499
793.875;1494
793.938;1484
794.000;1494
794.063;1494
794.125;1499
794.188;1491
794.250;1499
794.313;1491
794.375;1491
794.438;1496
794.500;1494
794.563;1491
794.625;1494
794.688;1486
794.750;1496
794.813;1489
794.875;1499
794.938;1496
795.000;1491
795.063;1486
795.125;1508
795.188;1499
795.250;1494
795.313;1494
795.375;1499
795.438;1501
795.500;1499
795.563;1499
795.625;1503
795.688;1496
795.750;1503
795.813;1501
795.875;1491
795.938;1489
796.000;1494
796.063;1499
796.125;1491
796.188;1503
796.250;1496
796.313;1489
796.375;1486
796.438;1496
796.500;1491
796.563;1503
796.625;1481
796.688;1494
796.750;1499
796.813;1501
796.875;1501
796.938;1491
797.000;1503
797.063;1499
797.125;1496
797.188;1501
797.250;1499
797.313;1496
797.375;1501
797.438;1506
797.500;1491
797.563;1494
797.625;1499
797.688;1494
797.750;1496
797.813;1494
797.875;1499
797.938;1494
798.000;1494
798.063;1501
798.125;1499
798.188;1489
798.250;1496
798.313;1496
798.375;1496
798.438;1508
798.500;1496
798.563;1491
798.625;1484
798.688;1489
798.750;1494
798.813;1496
798.875;1499
798.938;1499
799.000;1503
799.063;1496
799.125;1496
799.188;1499
799.250;1496
799.313;1499
799.375;1489
799.438;1494
799.500;1486
799.563;1501
799.625;1496
799.688;1494
799.750;1494
799.813;1496
799.875;1494
799.938;1501
800.000;1494
800.063;1491
800.125;1494
800.188;1499
800.250;1501
800.313;1491
800.375;1499
800.438;1491
800.500;1496
800.563;1491
800.625;1494
800.688;1489
800.750;1503
800.813;1491
800.875;1503
800.938;1489
801.000;1486
801.063;1491
801.125;1499
801.188;1494
801.250;1491
801.313;1489
801.375;1499
801.438;1494
801.500;1491
801.563;1491
801.625;1496
801.688;1486
801.750;1491
801.813;1501
801.875;1491
801.938;1494
802.000;1484
802.063;1494
802.125;1496
802.188;1489
802.250;1494
802.313;1494
802.375;1484
802.438;1496
802.500;1494
802.563;1491
802.625;1491
802.688;1491
802.750;1491
802.813;1491
802.875;1494
802.938;1494
803.000;1491
803.063;1496
803.125;1496
803.188;1491
803.250;1496
803.313;1494
803.375;1489
803.438;1489
803.500;1494
803.563;1494
803.625;1496
803.688;1494
803.750;1496
803.813;1486
803.875;1489
803.938;1494
804.000;1489
804.063;1496
804.125;1501
804.188;1489
804.250;1491
804.313;1486
804.375;1496
804.438;1491
804.500;1489
804.563;1481
804.625;1499
804.688;1494
804.750;1501
804.813;1496
804.875;1491
804.938;1491
805.000;1491
805.063;1496
805.125;1496
805.188;1491
805.250;1491
805.313;1501
805.375;1499
805.438;1496
805.500;1499
805.563;1494
805.625;1491
805.688;1496
805.750;1494
805.813;1496
805.875;1499
805.938;1494
806.000;1491
806.063;1501
806.125;1489
806.188;1501
806.250;1494
806.313;1494
806.375;1491
806.438;1503
806.500;1491
806.563;1501
806.625;1503
806.688;1484
806.750;1496
806.813;1499
806.875;1506
806.938;1491
807.000;1501
807.063;1499
807.125;1506
807.188;1499
807.250;1499
807.313;1501
807.375;1503
807.438;1501
807.500;1496
807.563;1506
807.625;1499
807.688;1499
807.750;1494
807.813;1508
807.875;1501
807.938;1506
808.000;1494
808.063;1501
808.125;1496
808.188;1496
808.250;1491
808.313;1494
808.375;1501
808.438;1496
808.500;1503
808.563;1506
808.625;1496
808.688;1506
808.750;1489
808.813;1491
808.875;1496
808.938;1496
809.000;1499
809.063;1501
809.125;1501
809.188;1491
809.250;1499
809.313;1489
809.375;1499
809.438;1501
809.500;1496
809.563;1496
809.625;1501
809.688;1508
809.750;1499
809.813;1494
809.875;1499
809.938;1503
810.000;1501
810.063;1501
810.125;1491
810.188;1489
810.250;1503
810.313;1494
810.375;1501
810.438;1499
810.500;1506
810.563;1503
810.625;1508
810.688;1494
810.750;1508
810.813;1503
810.875;1484
810.938;1503
811.000;1501
811.063;1496
811.125;1501
811.188;1506
811.250;1506
811.313;1503
811.375;1496
811.438;1494
811.500;1491
811.563;1496
811.625;1501
811.688;1508
811.750;1496
811.813;1494
811.875;1499
811.938;1503
812.000;1491
812.063;1503
812.125;1499
812.188;1491
812.250;1501
812.313;1501
812.375;1503
812.438;1494
812.500;1496
812.563;1489
812.625;1496
812.688;1489
812.750;1499
812.813;1494
812.875;1494
812.938;1501
813.000;1489
813.063;1496
813.125;1489
813.188;1494
813.250;1506
813.313;1499
813.375;1496
813.438;1486
813.500;1496
813.563;1501
813.625;1494
813.688;1494
813.750;1501
813.813;1499
813.875;1496
813.938;1496
814.000;1496
814.063;1491
814.125;1484
814.188;1496
814.250;1501
814.313;1486
814.375;1496
814.438;1499
814.500;1503
814.563;1494
814.625;1496
814.688;1496
814.750;1499
814.813;1494
814.875;1494
814.938;1491
815.000;1494
815.063;1494
815.125;1499
815.188;1496
815.250;1496
815.313;1499
815.375;1491
815.438;1489
815.500;1491
815.563;1481
815.625;1496
815.688;1501
815.750;1486
815.813;1496
815.875;1484
815.938;1491
816.000;1496
816.063;1499
816.125;1499
816.188;1499
816.250;1491
816.313;1496
816.375;1499
816.438;1494
816.500;1503
816.563;1491
816.625;1496
816.688;1491
816.750;1491
816.813;1501
816.875;1491
816.938;1494
817.000;1501
817.063;1501
817.125;1501
817.188;1496
817.250;1494
817.313;1499
817.375;1496
817.438;1494
817.500;1496
817.563;1499
817.625;1508
817.688;1499
817.750;1494
817.813;1491
817.875;1496
817.938;1496
818.000;1496
818.063;1499
818.125;1499
818.188;1491
818.250;1491
818.313;1496
818.375;1496
818.438;1496
818.500;1503
818.563;1503
818.625;1489
818.688;1499
818.750;1501
818.813;1506
818.875;1501
818.938;1486
819.000;1486
819.063;1501
819.125;1501
819.188;1501
819.250;1494
819.313;1491
819.375;1501
819.438;1496
819.500;1501
819.563;1501
819.625;1506
819.688;1501
819.750;1503
819.813;1499
819.875;1499
819.938;1494
820.000;1501
820.063;1496
820.125;1506
820.188;1499
820.250;1499
820.313;1503
820.375;1496
820.438;1484
820.500;1491
820.563;1496
820.625;1496
820.688;1508
820.750;1491
820.813;1501
820.875;1506
820.938;1501
821.000;1501
821.063;1503
821.125;1499
821.188;1494
821.250;1503
821.313;1491
821.375;1494
821.438;1499
821.500;1501
821.563;1494
821.625;1499
821.688;1496
821.750;1491
821.813;1491
821.875;1503
821.938;1506
822.000;1501
822.063;1501
822.125;1501
822.188;1501
822.250;1503
822.313;1494
822.375;1499
822.438;1501
822.500;1496
822.563;1499
822.625;1494
822.688;1503
822.750;1506
822.813;1499
822.875;1496
822.938;1496
823.000;1489
823.063;1496
823.125;1491
823.188;1496
823.250;1501
823.313;1501
823.375;1501
823.438;1499
823.500;1499
823.563;1496
823.625;1506
823.688;1503
823.750;1499
823.813;1496
823.875;1503
823.938;1499
824.000;1494
824.063;1489
824.125;1494
824.188;1501
824.250;1501
824.313;1496
824.375;1494
824.438;1499
824.500;1503
824.563;1486
824.625;1491
824.688;1501
824.750;1491
824.813;1494
824.875;1491
824.938;1491
825.000;1489
825.063;1496
825.125;1494
825.188;1496
825.250;1491
825.313;1491
825.375;1491
825.438;1491
825.500;1489
825.563;1491
825.625;1494
825.688;1496
825.750;1494
825.813;1484
825.875;1499
825.938;1499
826.000;1499
826.063;1496
826.125;1494
826.188;1496
826.250;1499
826.313;1496
826.375;1503
826.438;1491
826.500;1494
826.563;1494
826.625;1499
826.688;1489
826.750;1496
826.813;1496
826.875;1494
826.938;1496
827.000;1499
827.063;1496
827.125;1494
827.188;1506
827.250;1484
827.313;1503
827.375;1491
827.438;1489
827.500;1499
827.563;1499
827.625;1496
827.688;1496
827.750;1491
827.813;1499
827.875;1491
827.938;1491
828.000;1501
828.063;1491
828.125;1491
828.188;1494
828.250;1499
828.313;1489
828.375;1479
828.438;1491
828.500;1494
828.563;1491
828.625;1501
828.688;1499
828.750;1494
828.813;1499
828.875;1489
828.938;1496
829.000;1491
829.063;1491
829.125;1499
829.188;1491
829.250;1494
829.313;1501
829.375;1501
829.438;1501
829.500;1491
829.563;1499
829.625;1501
829.688;1494
829.750;1489
829.813;1491
829.875;1491
829.938;1494
830.000;1506
830.063;1499
830.125;1501
830.188;1503
830.250;1501
830.313;1494
830.375;1496
830.438;1499
830.500;1496
830.563;1494
830.625;1496
830.688;1494
830.750;1496
830.813;1496
830.875;1499
830.938;1501
831.000;1491
831.063;1499
831.125;1491
831.188;1494
831.250;1503
831.313;1491
831.375;1499
831.438;1501
831.500;1494
831.563;1496
831.625;1503
831.688;1496
831.750;1503
831.813;1496
831.875;1503
831.938;1501
832.000;1501
832.063;1506
832.125;1501
832.188;1499
832.250;1501
832.313;1496
832.375;1513
832.438;1503
832.500;1501
832.563;1508
832.625;1494
832.688;1491
832.750;1499
832.813;1508
832.875;1499
832.938;1494
833.000;1503
833.063;1499
833.125;1499
833.188;1496
833.250;1499
833.313;1506
833.375;1499
833.438;1499
833.500;1506
833.563;1496
833.625;1516
833.688;1506
833.750;1501
833.813;1499
833.875;1503
833.938;1499
834.000;1501
834.063;1508
834.125;1499
834.188;1499
834.250;1496
834.313;1506
834.375;1499
834.438;1513
834.500;1508
834.563;1499
834.625;1503
834.688;1503
834.750;1503
834.813;1508
834.875;1511
834.938;1499
835.000;1503
835.063;1506
835.125;1503
835.188;1501
835.250;1501
835.313;1499
835.375;1499
835.438;1494
835.500;1491
835.563;1503
835.625;1508
835.688;1501
835.750;1496
835.813;1506
835.875;1491
835.938;1499
836.000;1494
836.063;1486
836.125;1491
836.188;1496
836.250;1499
836.313;1486
836.375;1501
836.438;1496
836.500;1489
836.563;1489
836.625;1494
836.688;1489
836.750;1499
836.813;1494
836.875;1499
836.938;1494
837.000;1499
837.063;1486
837.125;1491
837.188;1499
837.250;1499
837.313;1489
837.375;1494
837.438;1494
837.500;1501
837.563;1496
837.625;1501
837.688;1501
837.750;1494
837.813;1499
837.875;1496
837.938;1494
838.000;1494
838.063;1494
838.125;1491
838.188;1496
838.250;1494
838.313;1501
838.375;1503
838.438;1494
838.500;1499
838.563;1489
838.625;1484
838.688;1489
838.750;1494
838.813;1501
838.875;1494
838.938;1501
839.000;1501
839.063;1491
839.125;1499
839.188;1486
839.250;1494
839.313;1494
839.375;1494
839.438;1499
839.500;1501
839.563;1494
839.625;1501
839.688;1499
839.750;1489
839.813;1503
839.875;1501
839.938;1494
840.000;1506
840.063;1477
840.125;1489
840.188;1501
840.250;1494
840.313;1496
840.375;1494
840.438;1494
840.500;1499
840.563;1503
840.625;1499
840.688;1494
840.750;1491
840.813;1496
840.875;1496
840.938;1494
841.000;1499
841.063;1486
841.125;1496
841.188;1499
841.250;1486
841.313;1494
841.375;1494
841.438;1494
841.500;1501
841.563;1499
841.625;1496
841.688;1499
841.750;1494
841.813;1491
841.875;1499
841.938;1491
842.000;1494
842.063;1499
842.125;1503
842.188;1499
842.250;1494
842.313;1496
842.375;1503
842.438;1489
842.500;1499
842.563;1503
842.625;1494
842.688;1499
842.750;1503
842.813;1491
842.875;1496
842.938;1501
843.000;1503
843.063;1506
843.125;1494
843.188;1499
843.250;1501
843.313;1506
843.375;1501
843.438;1499
843.500;1499
843.563;1491
843.625;1496
843.688;1501
843.750;1499
843.813;1508
843.875;1499
843.938;1499
844.000;1489
844.063;1491
844.125;1499
844.188;1501
844.250;1516
844.313;1494
844.375;1499
844.438;1499
844.500;1499
844.563;1484
844.625;1496
844.688;1501
844.750;1494
844.813;1491
844.875;1501
844.938;1496
845.000;1496
845.063;1496
845.125;1501
845.188;1496
845.250;1503
845.313;1499
845.375;1496
845.438;1503
845.500;1503
845.563;1501
845.625;1496
845.688;1499
845.750;1503
845.813;1503
845.875;1494
845.938;1496
846.000;1494
846.063;1501
846.125;1501
846.188;1484
846.250;1496
846.313;1494
846.375;1499
846.438;1496
846.500;1501
846.563;1494
846.625;1506
846.688;1496
846.750;1499
846.813;1501
846.875;1494
846.938;1496
847.000;1496
847.063;1506
847.125;1491
847.188;1501
847.250;1499
847.313;1503
847.375;1499
847.438;1499
847.500;1499
847.563;1496
847.625;1489
847.688;1501
847.750;1508
847.813;1499
847.875;1501
847.938;1486
848.000;1494
848.063;1501
848.125;1499
848.188;1494
848.250;1499
848.313;1499
848.375;1494
848.438;1499
848.500;1499
848.563;1508
848.625;1496
848.688;1501
848.750;1501
848.813;1499
848.875;1494
848.938;1501
849.000;1501
849.063;1491
849.125;1494
849.188;1486
849.250;1496
849.313;1496
849.375;1491
849.438;1494
849.500;1496
849.563;1499
849.625;1501
849.688;1486
849.750;1486
849.813;1496
849.875;1496
849.938;1501
850.000;1494
850.063;1489
850.125;1496
850.188;1491
850.250;1501
850.313;1491
850.375;1491
850.438;1499
850.500;1496
850.563;1491
850.625;1501
850.688;1496
850.750;1496
850.813;1501
850.875;1496
850.938;1481
851.000;1489
851.063;1494
851.125;1484
851.188;1494
851.250;1494
851.313;1489
851.375;1489
851.438;1484
851.500;1499
851.563;1496
851.625;1496
851.688;1496
851.750;1489
851.813;1494
851.875;1494
851.938;1491
852.000;1491
852.063;1484
852.125;1499
852.188;1489
852.250;1491
852.313;1501
852.375;1481
852.438;1494
852.500;1491
852.563;1494
852.625;1494
852.688;1486
852.750;1494
852.813;1491
852.875;1484
852.938;1484
853.000;1489
853.063;1494
853.125;1491
853.188;1499
853.250;1491
853.313;1496
853.375;1499
853.438;1496
853.500;1496
853.563;1494
853.625;1496
853.688;1496
853.750;1491
853.813;1499
853.875;1494
853.938;1496
854.000;1503
854.063;1486
854.125;1499
854.188;1496
854.250;1496
854.313;1489
854.375;1489
854.438;1494
854.500;1491
854.563;1491
854.625;1489
854.688;1491
854.750;1503
854.813;1494
854.875;1496
854.938;1501
855.000;1499
855.063;1499
855.125;1501
855.188;1501
855.250;1499
855.313;1491
855.375;1496
855.438;1496
855.500;1494
855.563;1496
855.625;1491
855.688;1496
855.750;1496
855.813;1496
855.875;1496
855.938;1494
856.000;1501
856.063;1489
856.125;1494
856.188;1491
856.250;1489
856.313;1494
856.375;1489
856.438;1494
856.500;1494
856.563;1501
856.625;1503
856.688;1499
856.750;1494
856.813;1499
856.875;1496
856.938;1496
857.000;1501
857.063;1484
857.125;1501
857.188;1503
857.250;1499
857.313;1501
857.375;1499
857.438;1494
857.500;1489
857.563;1494
857.625;1494
857.688;1494
857.750;1501
857.813;1496
857.875;1491
857.938;1491
858.000;1491
858.063;1496
858.125;1491
858.188;1494
858.250;1494
858.313;1496
858.375;1508
858.438;1501
858.500;1494
858.563;1501
858.625;1499
858.688;1496
858.750;1486
858.813;1494
858.875;1494
858.938;1501
859.000;1491
859.063;1496
859.125;1506
859.188;1491
859.250;1499
859.313;1486
859.375;1494
859.438;1496
859.500;1491
859.563;1491
859.625;1496
859.688;1489
859.750;1491
859.813;1486
859.875;1496
859.938;1494
860.000;1499
860.063;1499
860.125;1484
860.188;1499
860.250;1496
860.313;1491
860.375;1494
860.438;1491
860.500;1494
860.563;1499
860.625;1491
860.688;1486
860.750;1501
860.813;1486
860.875;1499
860.938;1503
861.000;1494
861.063;1506
861.125;1496
861.188;1489
861.250;1484
861.313;1484
861.375;1499
861.438;1496
861.500;1501
861.563;1496
861.625;1494
861.688;1491
861.750;1494
861.813;1496
861.875;1491
861.938;1496
862.000;1486
862.063;1499
862.125;1501
862.188;1494
862.250;1501
862.313;1496
862.375;1494
862.438;1499
862.500;1491
862.563;1494
862.625;1501
862.688;1491
862.750;1494
862.813;1484
862.875;1499
862.938;1491
863.000;1484
863.063;1494
863.125;1496
863.188;1494
863.250;1494
863.313;1501
863.375;1489
863.438;1499
863.500;1494
863.563;1499
863.625;1489
863.688;1501
863.750;1501
863.813;1503
863.875;1484
863.938;1496
864.000;1499
864.063;1499
864.125;1494
864.188;1489
864.250;1499
864.313;1501
864.375;1494
864.438;1496
864.500;1499
864.563;1508
864.625;1499
864.688;1491
864.750;1491
864.813;1499
864.875;1499
864.938;1501
865.000;1496
865.063;1499
865.125;1503
865.188;1489
865.250;1501
865.313;1494
865.375;1496
865.438;1489
865.500;1501
865.563;1494
865.625;1503
865.688;1501
865.750;1501
865.813;1499
865.875;1496
865.938;1501
866.000;1494
866.063;1501
866.125;1494
866.188;1499
866.250;1501
866.313;1501
866.375;1496
866.438;1501
866.500;1501
866.563;1499
866.625;1503
866.688;1508
866.750;1491
866.813;1499
866.875;1501
866.938;1501
867.000;1494
867.063;1496
867.125;1496
867.188;1503
867.250;1501
867.313;1494
867.375;1501
867.438;1501
867.500;1491
867.563;1506
867.625;1499
867.688;1496
867.750;1496
867.813;1499
867.875;1499
867.938;1499
868.000;1496
868.063;1499
868.125;1506
868.188;1503
868.250;1501
868.313;1499
868.375;1503
868.438;1499
868.500;1499
868.563;1494
868.625;1494
868.688;1499
868.750;1499
868.813;1499
868.875;1508
868.938;1501
869.000;1499
869.063;1501
869.125;1499
869.188;1511
869.250;1508
869.313;1513
869.375;1506
869.438;1503
869.500;1506
869.563;1496
869.625;1496
869.688;1491
869.750;1501
869.813;1501
869.875;1511
869.938;1506
870.000;1496
