Frequency[MHz];Amplitude RX1[mV] at pwm=120;SW-version 1.24, e-Callisto
 45.000;1386
 45.063;1347
 45.125;1320
 45.188;1276
 45.250;1245
 45.313;1181
 45.375;1113
 45.438;1115
 45.500;1118
 45.563;1118
 45.625;1123
 45.688;1123
 45.750;1113
 45.813;1123
 45.875;1120
 45.938;1115
 46.000;1127
 46.063;1127
 46.125;1123
 46.188;1125
 46.250;1127
 46.313;1125
 46.375;1125
 46.438;1130
 46.500;1132
 46.563;1135
 46.625;1130
 46.688;1132
 46.750;1132
 46.813;1137
 46.875;1140
 46.938;1140
 47.000;1140
 47.063;1127
 47.125;1140
 47.188;1140
 47.250;1142
 47.313;1137
 47.375;1137
 47.438;1135
 47.500;1147
 47.563;1137
 47.625;1140
 47.688;1137
 47.750;1145
 47.813;1145
 47.875;1142
 47.938;1152
 48.000;1149
 48.063;1142
 48.125;1140
 48.188;1149
 48.250;1149
 48.313;1152
 48.375;1147
 48.438;1152
 48.500;1159
 48.563;1152
 48.625;1152
 48.688;1152
 48.750;1149
 48.813;1152
 48.875;1149
 48.938;1149
 49.000;1154
 49.063;1147
 49.125;1147
 49.188;1149
 49.250;1162
 49.313;1157
 49.375;1154
 49.438;1152
 49.500;1157
 49.563;1152
 49.625;1154
 49.688;1154
 49.750;1152
 49.813;1149
 49.875;1159
 49.938;1149
 50.000;1149
 50.063;1154
 50.125;1157
 50.188;1145
 50.250;1152
 50.313;1149
 50.375;1149
 50.438;1152
 50.500;1154
 50.563;1159
 50.625;1154
 50.688;1149
 50.750;1154
 50.813;1159
 50.875;1147
 50.938;1149
 51.000;1152
 51.063;1145
 51.125;1145
 51.188;1152
 51.250;1149
 51.313;1149
 51.375;1152
 51.438;1149
 51.500;1152
 51.563;1154
 51.625;1149
 51.688;1154
 51.750;1162
 51.813;1147
 51.875;1154
 51.938;1159
 52.000;1149
 52.063;1157
 52.125;1154
 52.188;1157
 52.250;1157
 52.313;1154
 52.375;1145
 52.438;1154
 52.500;1157
 52.563;1154
 52.625;1154
 52.688;1152
 52.750;1159
 52.813;1154
 52.875;1159
 52.938;1152
 53.000;1157
 53.063;1157
 53.125;1159
 53.188;1162
 53.250;1162
 53.313;1162
 53.375;1164
 53.438;1159
 53.500;1166
 53.563;1157
 53.625;1169
 53.688;1169
 53.750;1164
 53.813;1166
 53.875;1159
 53.938;1164
 54.000;1164
 54.063;1164
 54.125;1162
 54.188;1169
 54.250;1164
 54.313;1171
 54.375;1169
 54.438;1162
 54.500;1169
 54.563;1171
 54.625;1166
 54.688;1169
 54.750;1174
 54.813;1169
 54.875;1174
 54.938;1169
 55.000;1174
 55.063;1176
 55.125;1181
 55.188;1174
 55.250;1174
 55.313;1181
 55.375;1176
 55.438;1184
 55.500;1184
 55.563;1188
 55.625;1186
 55.688;1179
 55.750;1174
 55.813;1186
 55.875;1188
 55.938;1184
 56.000;1186
 56.063;1184
 56.125;1186
 56.188;1171
 56.250;1188
 56.313;1186
 56.375;1191
 56.438;1198
 56.500;1196
 56.563;1196
 56.625;1191
 56.688;1193
 56.750;1188
 56.813;1196
 56.875;1193
 56.938;1201
 57.000;1188
 57.063;1201
 57.125;1203
 57.188;1196
 57.250;1198
 57.313;1203
 57.375;1203
 57.438;1201
 57.500;1193
 57.563;1208
 57.625;1206
 57.688;1210
 57.750;1201
 57.813;1213
 57.875;1210
 57.938;1210
 58.000;1210
 58.063;1218
 58.125;1213
 58.188;1208
 58.250;1210
 58.313;1215
 58.375;1201
 58.438;1210
 58.500;1210
 58.563;1208
 58.625;1213
 58.688;1215
 58.750;1215
 58.813;1220
 58.875;1218
 58.938;1223
 59.000;1218
 59.063;1218
 59.125;1215
 59.188;1218
 59.250;1218
 59.313;1223
 59.375;1220
 59.438;1218
 59.500;1218
 59.563;1223
 59.625;1228
 59.688;1223
 59.750;1215
 59.813;1218
 59.875;1225
 59.938;1230
 60.000;1218
 60.063;1230
 60.125;1223
 60.188;1228
 60.250;1223
 60.313;1225
 60.375;1223
 60.438;1223
 60.500;1223
 60.563;1218
 60.625;1218
 60.688;1218
 60.750;1220
 60.813;1218
 60.875;1223
 60.938;1218
 61.000;1220
 61.063;1210
 61.125;1218
 61.188;1208
 61.250;1225
 61.313;1223
 61.375;1223
 61.438;1215
 61.500;1225
 61.563;1228
 61.625;1210
 61.688;1223
 61.750;1225
 61.813;1235
 61.875;1223
 61.938;1225
 62.000;1220
 62.063;1225
 62.125;1215
 62.188;1218
 62.250;1220
 62.313;1218
 62.375;1225
 62.438;1232
 62.500;1213
 62.563;1220
 62.625;1215
 62.688;1210
 62.750;1218
 62.813;1218
 62.875;1213
 62.938;1218
 63.000;1220
 63.063;1220
 63.125;1210
 63.188;1210
 63.250;1215
 63.313;1218
 63.375;1218
 63.438;1213
 63.500;1218
 63.563;1215
 63.625;1206
 63.688;1215
 63.750;1206
 63.813;1215
 63.875;1228
 63.938;1218
 64.000;1218
 64.063;1213
 64.125;1220
 64.188;1215
 64.250;1220
 64.313;1220
 64.375;1223
 64.438;1210
 64.500;1213
 64.563;1223
 64.625;1225
 64.688;1218
 64.750;1220
 64.813;1223
 64.875;1215
 64.938;1223
 65.000;1220
 65.063;1215
 65.125;1220
 65.188;1220
 65.250;1223
 65.313;1223
 65.375;1223
 65.438;1220
 65.500;1220
 65.563;1230
 65.625;1225
 65.688;1213
 65.750;1218
 65.813;1218
 65.875;1225
 65.938;1223
 66.000;1225
 66.063;1218
 66.125;1225
 66.188;1220
 66.250;1218
 66.313;1228
 66.375;1254
 66.438;1264
 66.500;1259
 66.563;1257
 66.625;1254
 66.688;1242
 66.750;1237
 66.813;1225
 66.875;1228
 66.938;1237
 67.000;1225
 67.063;1228
 67.125;1240
 67.188;1242
 67.250;1235
 67.313;1230
 67.375;1242
 67.438;1230
 67.500;1237
 67.563;1230
 67.625;1240
 67.688;1237
 67.750;1235
 67.813;1245
 67.875;1254
 67.938;1252
 68.000;1240
 68.063;1247
 68.125;1237
 68.188;1240
 68.250;1242
 68.313;1247
 68.375;1247
 68.438;1250
 68.500;1254
 68.563;1245
 68.625;1252
 68.688;1250
 68.750;1242
 68.813;1250
 68.875;1254
 68.938;1252
 69.000;1257
 69.063;1257
 69.125;1245
 69.188;1254
 69.250;1247
 69.313;1257
 69.375;1262
 69.438;1259
 69.500;1257
 69.563;1262
 69.625;1267
 69.688;1264
 69.750;1257
 69.813;1264
 69.875;1259
 69.938;1262
 70.000;1264
 70.063;1252
 70.125;1267
 70.188;1271
 70.250;1269
 70.313;1264
 70.375;1262
 70.438;1269
 70.500;1259
 70.563;1271
 70.625;1262
 70.688;1267
 70.750;1279
 70.813;1274
 70.875;1269
 70.938;1269
 71.000;1271
 71.063;1274
 71.125;1262
 71.188;1276
 71.250;1279
 71.313;1279
 71.375;1269
 71.438;1276
 71.500;1269
 71.563;1267
 71.625;1269
 71.688;1269
 71.750;1274
 71.813;1267
 71.875;1264
 71.938;1271
 72.000;1274
 72.063;1269
 72.125;1264
 72.188;1271
 72.250;1276
 72.313;1281
 72.375;1267
 72.438;1279
 72.500;1269
 72.563;1271
 72.625;1269
 72.688;1271
 72.750;1271
 72.813;1269
 72.875;1274
 72.938;1271
 73.000;1271
 73.063;1274
 73.125;1271
 73.188;1269
 73.250;1271
 73.313;1267
 73.375;1262
 73.438;1262
 73.500;1267
 73.563;1257
 73.625;1271
 73.688;1269
 73.750;1269
 73.813;1267
 73.875;1264
 73.938;1257
 74.000;1267
 74.063;1276
 74.125;1271
 74.188;1259
 74.250;1262
 74.313;1269
 74.375;1269
 74.438;1254
 74.500;1262
 74.563;1271
 74.625;1259
 74.688;1264
 74.750;1267
 74.813;1271
 74.875;1267
 74.938;1262
 75.000;1269
 75.063;1262
 75.125;1267
 75.188;1267
 75.250;1271
 75.313;1254
 75.375;1262
 75.438;1259
 75.500;1264
 75.563;1262
 75.625;1262
 75.688;1259
 75.750;1262
 75.813;1254
 75.875;1257
 75.938;1257
 76.000;1262
 76.063;1252
 76.125;1264
 76.188;1264
 76.250;1254
 76.313;1257
 76.375;1264
 76.438;1267
 76.500;1264
 76.563;1257
 76.625;1262
 76.688;1262
 76.750;1259
 76.813;1267
 76.875;1250
 76.938;1271
 77.000;1262
 77.063;1252
 77.125;1259
 77.188;1259
 77.250;1259
 77.313;1262
 77.375;1259
 77.438;1262
 77.500;1262
 77.563;1269
 77.625;1257
 77.688;1274
 77.750;1262
 77.813;1267
 77.875;1264
 77.938;1267
 78.000;1264
 78.063;1259
 78.125;1269
 78.188;1264
 78.250;1267
 78.313;1267
 78.375;1271
 78.438;1269
 78.500;1267
 78.563;1279
 78.625;1267
 78.688;1274
 78.750;1264
 78.813;1271
 78.875;1269
 78.938;1276
 79.000;1284
 79.063;1271
 79.125;1267
 79.188;1279
 79.250;1276
 79.313;1276
 79.375;1267
 79.438;1267
 79.500;1281
 79.563;1279
 79.625;1279
 79.688;1281
 79.750;1281
 79.813;1279
 79.875;1279
 79.938;1286
 80.000;1274
 80.063;1274
 80.125;1289
 80.188;1284
 80.250;1276
 80.313;1276
 80.375;1271
 80.438;1284
 80.500;1281
 80.563;1298
 80.625;1286
 80.688;1293
 80.750;1291
 80.813;1281
 80.875;1293
 80.938;1293
 81.000;1286
 81.063;1289
 81.125;1289
 81.188;1286
 81.250;1291
 81.313;1289
 81.375;1296
 81.438;1293
 81.500;1296
 81.563;1293
 81.625;1286
 81.688;1293
 81.750;1293
 81.813;1296
 81.875;1301
 81.938;1298
 82.000;1308
 82.063;1301
 82.125;1298
 82.188;1301
 82.250;1308
 82.313;1303
 82.375;1313
 82.438;1308
 82.500;1303
 82.563;1308
 82.625;1308
 82.688;1308
 82.750;1311
 82.813;1301
 82.875;1306
 82.938;1306
 83.000;1303
 83.063;1303
 83.125;1303
 83.188;1311
 83.250;1313
 83.313;1306
 83.375;1315
 83.438;1303
 83.500;1301
 83.563;1303
 83.625;1311
 83.688;1311
 83.750;1296
 83.813;1303
 83.875;1298
 83.938;1306
 84.000;1308
 84.063;1298
 84.125;1311
 84.188;1308
 84.250;1301
 84.313;1311
 84.375;1301
 84.438;1315
 84.500;1311
 84.563;1298
 84.625;1303
 84.688;1301
 84.750;1298
 84.813;1315
 84.875;1306
 84.938;1301
 85.000;1298
 85.063;1293
 85.125;1311
 85.188;1301
 85.250;1306
 85.313;1301
 85.375;1303
 85.438;1298
 85.500;1311
 85.563;1311
 85.625;1308
 85.688;1303
 85.750;1301
 85.813;1301
 85.875;1296
 85.938;1301
 86.000;1296
 86.063;1303
 86.125;1301
 86.188;1298
 86.250;1301
 86.313;1298
 86.375;1293
 86.438;1298
 86.500;1298
 86.563;1293
 86.625;1303
 86.688;1306
 86.750;1286
 86.813;1298
 86.875;1296
 86.938;1291
 87.000;1296
 87.063;1298
 87.125;1296
 87.188;1298
 87.250;1296
 87.313;1293
 87.375;1298
 87.438;1296
 87.500;1296
 87.563;1301
 87.625;1298
 87.688;1303
 87.750;1291
 87.813;1296
 87.875;1296
 87.938;1293
 88.000;1301
 88.063;1296
 88.125;1286
 88.188;1296
 88.250;1291
 88.313;1293
 88.375;1296
 88.438;1303
 88.500;1301
 88.563;1315
 88.625;1313
 88.688;1298
 88.750;1296
 88.813;1306
 88.875;1293
 88.938;1293
 89.000;1281
 89.063;1291
 89.125;1293
 89.188;1291
 89.250;1291
 89.313;1293
 89.375;1284
 89.438;1296
 89.500;1303
 89.563;1298
 89.625;1286
 89.688;1296
 89.750;1296
 89.813;1298
 89.875;1291
 89.938;1306
 90.000;1306
 90.063;1293
 90.125;1298
 90.188;1291
 90.250;1296
 90.313;1293
 90.375;1298
 90.438;1296
 90.500;1301
 90.563;1293
 90.625;1301
 90.688;1301
 90.750;1296
 90.813;1308
 90.875;1293
 90.938;1296
 91.000;1293
 91.063;1291
 91.125;1301
 91.188;1303
 91.250;1296
 91.313;1303
 91.375;1306
 91.438;1306
 91.500;1296
 91.563;1298
 91.625;1301
 91.688;1298
 91.750;1306
 91.813;1313
 91.875;1301
 91.938;1296
 92.000;1315
 92.063;1303
 92.125;1306
 92.188;1306
 92.250;1301
 92.313;1308
 92.375;1313
 92.438;1313
 92.500;1308
 92.563;1306
 92.625;1311
 92.688;1306
 92.750;1315
 92.813;1315
 92.875;1318
 92.938;1315
 93.000;1303
 93.063;1315
 93.125;1318
 93.188;1323
 93.250;1323
 93.313;1320
 93.375;1320
 93.438;1315
 93.500;1311
 93.563;1318
 93.625;1313
 93.688;1318
 93.750;1313
 93.813;1318
 93.875;1315
 93.938;1325
 94.000;1323
 94.063;1320
 94.125;1320
 94.188;1320
 94.250;1308
 94.313;1320
 94.375;1320
 94.438;1323
 94.500;1311
 94.563;1330
 94.625;1315
 94.688;1320
 94.750;1318
 94.813;1315
 94.875;1328
 94.938;1320
 95.000;1320
 95.063;1325
 95.125;1320
 95.188;1323
 95.250;1320
 95.313;1318
 95.375;1320
 95.438;1320
 95.500;1325
 95.563;1328
 95.625;1323
 95.688;1335
 95.750;1328
 95.813;1323
 95.875;1325
 95.938;1330
 96.000;1325
 96.063;1318
 96.125;1323
 96.188;1328
 96.250;1335
 96.313;1330
 96.375;1323
 96.438;1318
 96.500;1323
 96.563;1318
 96.625;1323
 96.688;1313
 96.750;1318
 96.813;1320
 96.875;1313
 96.938;1323
 97.000;1318
 97.063;1325
 97.125;1333
 97.188;1328
 97.250;1325
 97.313;1328
 97.375;1320
 97.438;1325
 97.500;1318
 97.563;1328
 97.625;1308
 97.688;1320
 97.750;1315
 97.813;1323
 97.875;1328
 97.938;1323
 98.000;1328
 98.063;1323
 98.125;1318
 98.188;1311
 98.250;1315
 98.313;1315
 98.375;1318
 98.438;1318
 98.500;1318
 98.563;1318
 98.625;1313
 98.688;1313
 98.750;1318
 98.813;1318
 98.875;1315
 98.938;1318
 99.000;1311
 99.063;1320
 99.125;1313
 99.188;1318
 99.250;1318
 99.313;1311
 99.375;1311
 99.438;1313
 99.500;1313
 99.563;1311
 99.625;1306
 99.688;1320
 99.750;1308
 99.813;1318
 99.875;1308
 99.938;1303
100.000;1313
100.063;1315
100.125;1311
100.188;1320
100.250;1315
100.313;1306
100.375;1311
100.438;1313
100.500;1313
100.563;1313
100.625;1303
100.688;1311
100.750;1315
100.813;1311
100.875;1318
100.938;1306
101.000;1311
101.063;1315
101.125;1311
101.188;1320
101.250;1311
101.313;1320
101.375;1306
101.438;1306
101.500;1311
101.563;1323
101.625;1298
101.688;1318
101.750;1311
101.813;1313
101.875;1313
101.938;1303
102.000;1308
102.063;1303
102.125;1318
102.188;1315
102.250;1308
102.313;1308
102.375;1303
102.438;1306
102.500;1313
102.563;1311
102.625;1318
102.688;1308
102.750;1323
102.813;1313
102.875;1313
102.938;1308
103.000;1311
103.063;1308
103.125;1315
103.188;1320
103.250;1313
103.313;1325
103.375;1323
103.438;1318
103.500;1308
103.563;1318
103.625;1318
103.688;1318
103.750;1323
103.813;1320
103.875;1313
103.938;1323
104.000;1318
104.063;1320
104.125;1313
104.188;1308
104.250;1306
104.313;1320
104.375;1315
104.438;1320
104.500;1320
104.563;1318
104.625;1323
104.688;1330
104.750;1320
104.813;1318
104.875;1323
104.938;1318
105.000;1325
105.063;1320
105.125;1325
105.188;1325
105.250;1323
105.313;1323
105.375;1325
105.438;1323
105.500;1318
105.563;1328
105.625;1335
105.688;1328
105.750;1323
105.813;1335
105.875;1330
105.938;1330
106.000;1330
106.063;1330
106.125;1318
106.188;1333
106.250;1340
106.313;1335
106.375;1328
106.438;1335
106.500;1335
106.563;1333
106.625;1330
106.688;1335
106.750;1328
106.813;1325
106.875;1328
106.938;1330
107.000;1333
107.063;1337
107.125;1335
107.188;1335
107.250;1330
107.313;1330
107.375;1335
107.438;1333
107.500;1330
107.563;1330
107.625;1333
107.688;1337
107.750;1333
107.813;1337
107.875;1342
107.938;1333
108.000;1330
108.063;1333
108.125;1337
108.188;1333
108.250;1323
108.313;1323
108.375;1323
108.438;1340
108.500;1328
108.563;1342
108.625;1337
108.688;1325
108.750;1325
108.813;1335
108.875;1330
108.938;1330
109.000;1330
109.063;1335
109.125;1330
109.188;1325
109.250;1330
109.313;1328
109.375;1328
109.438;1330
109.500;1323
109.563;1325
109.625;1333
109.688;1330
109.750;1330
109.813;1337
109.875;1328
109.938;1335
110.000;1330
110.063;1325
110.125;1328
110.188;1323
110.250;1337
110.313;1323
110.375;1325
110.438;1325
110.500;1328
110.563;1325
110.625;1320
110.688;1328
110.750;1335
110.813;1325
110.875;1320
110.938;1323
111.000;1328
111.063;1328
111.125;1318
111.188;1325
111.250;1325
111.313;1323
111.375;1323
111.438;1323
111.500;1325
111.563;1325
111.625;1323
111.688;1323
111.750;1320
111.813;1328
111.875;1318
111.938;1315
112.000;1315
112.063;1311
112.125;1323
112.188;1318
112.250;1318
112.313;1311
112.375;1323
112.438;1318
112.500;1323
112.563;1323
112.625;1320
112.688;1318
112.750;1320
112.813;1315
112.875;1318
112.938;1313
113.000;1315
113.063;1315
113.125;1328
113.188;1323
113.250;1318
113.313;1318
113.375;1318
113.438;1323
113.500;1315
113.563;1323
113.625;1311
113.688;1315
113.750;1315
113.813;1311
113.875;1318
113.938;1325
114.000;1320
114.063;1313
114.125;1325
114.188;1325
114.250;1313
114.313;1318
114.375;1318
114.438;1325
114.500;1313
114.563;1318
114.625;1320
114.688;1318
114.750;1325
114.813;1320
114.875;1323
114.938;1325
115.000;1323
115.063;1330
115.125;1318
115.188;1325
115.250;1323
115.313;1323
115.375;1318
115.438;1318
115.500;1323
115.563;1318
115.625;1330
115.688;1323
115.750;1328
115.813;1320
115.875;1325
115.938;1323
116.000;1325
116.063;1320
116.125;1320
116.188;1323
116.250;1320
116.313;1323
116.375;1323
116.438;1325
116.500;1311
116.563;1328
116.625;1323
116.688;1325
116.750;1325
116.813;1325
116.875;1337
116.938;1323
117.000;1323
117.063;1325
117.125;1323
117.188;1330
117.250;1328
117.313;1330
117.375;1330
117.438;1330
117.500;1325
117.563;1333
117.625;1330
117.688;1335
117.750;1333
117.813;1337
117.875;1325
117.938;1335
118.000;1330
118.063;1325
118.125;1335
118.188;1323
118.250;1335
118.313;1335
118.375;1333
118.438;1328
118.500;1345
118.563;1335
118.625;1335
118.688;1337
118.750;1337
118.813;1335
118.875;1325
118.938;1333
119.000;1333
119.063;1337
119.125;1330
119.188;1325
119.250;1333
119.313;1333
119.375;1340
119.438;1328
119.500;1340
119.563;1337
119.625;1335
119.688;1347
119.750;1335
119.813;1347
119.875;1337
119.938;1333
120.000;1337
120.063;1335
120.125;1340
120.188;1333
120.250;1335
120.313;1337
120.375;1335
120.438;1342
120.500;1333
120.563;1328
120.625;1337
120.688;1337
120.750;1335
120.813;1337
120.875;1333
120.938;1330
121.000;1320
121.063;1333
121.125;1335
121.188;1333
121.250;1328
121.313;1335
121.375;1330
121.438;1340
121.500;1335
121.563;1328
121.625;1330
121.688;1330
121.750;1337
121.813;1330
121.875;1328
121.938;1333
122.000;1320
122.063;1328
122.125;1328
122.188;1325
122.250;1325
122.313;1330
122.375;1330
122.438;1325
122.500;1323
122.563;1330
122.625;1330
122.688;1323
122.750;1318
122.813;1330
122.875;1335
122.938;1333
123.000;1320
123.063;1325
123.125;1330
123.188;1328
123.250;1335
123.313;1325
123.375;1330
123.438;1333
123.500;1320
123.563;1325
123.625;1315
123.688;1320
123.750;1318
123.813;1325
123.875;1313
123.938;1323
124.000;1328
124.063;1320
124.125;1318
124.188;1320
124.250;1315
124.313;1320
124.375;1323
124.438;1323
124.500;1313
124.563;1330
124.625;1320
124.688;1320
124.750;1315
124.813;1320
124.875;1320
124.938;1315
125.000;1323
125.063;1313
125.125;1323
125.188;1323
125.250;1320
125.313;1323
125.375;1320
125.438;1323
125.500;1313
125.563;1328
125.625;1323
125.688;1318
125.750;1323
125.813;1318
125.875;1323
125.938;1325
126.000;1323
126.063;1320
126.125;1320
126.188;1323
126.250;1328
126.313;1323
126.375;1328
126.438;1320
126.500;1320
126.563;1308
126.625;1318
126.688;1313
126.750;1320
126.813;1318
126.875;1320
126.938;1320
127.000;1318
127.063;1323
127.125;1320
127.188;1328
127.250;1323
127.313;1320
127.375;1323
127.438;1328
127.500;1323
127.563;1320
127.625;1320
127.688;1325
127.750;1320
127.813;1318
127.875;1328
127.938;1323
128.000;1320
128.063;1328
128.125;1323
128.188;1333
128.250;1330
128.313;1325
128.375;1335
128.438;1330
128.500;1325
128.563;1330
128.625;1328
128.688;1328
128.750;1325
128.813;1328
128.875;1323
128.938;1328
129.000;1328
129.063;1333
129.125;1333
129.188;1328
129.250;1320
129.313;1325
129.375;1325
129.438;1333
129.500;1323
129.563;1330
129.625;1323
129.688;1340
129.750;1320
129.813;1328
129.875;1325
129.938;1335
130.000;1335
130.063;1335
130.125;1335
130.188;1333
130.250;1333
130.313;1335
130.375;1333
130.438;1335
130.500;1323
130.563;1330
130.625;1330
130.688;1330
130.750;1328
130.813;1340
130.875;1328
130.938;1335
131.000;1328
131.063;1328
131.125;1333
131.188;1323
131.250;1323
131.313;1335
131.375;1333
131.438;1330
131.500;1333
131.563;1325
131.625;1330
131.688;1333
131.750;1335
131.813;1342
131.875;1335
131.938;1333
132.000;1337
132.063;1328
132.125;1333
132.188;1335
132.250;1335
132.313;1335
132.375;1333
132.438;1323
132.500;1342
132.563;1335
132.625;1330
132.688;1333
132.750;1340
132.813;1333
132.875;1333
132.938;1340
133.000;1340
133.063;1345
133.125;1342
133.188;1337
133.250;1333
133.313;1325
133.375;1335
133.438;1333
133.500;1340
133.563;1335
133.625;1333
133.688;1330
133.750;1337
133.813;1333
133.875;1337
133.938;1328
134.000;1325
134.063;1342
134.125;1335
134.188;1335
134.250;1335
134.313;1333
134.375;1330
134.438;1342
134.500;1342
134.563;1335
134.625;1325
134.688;1333
134.750;1335
134.813;1330
134.875;1328
134.938;1335
135.000;1323
135.063;1337
135.125;1330
135.188;1325
135.250;1333
135.313;1330
135.375;1333
135.438;1328
135.500;1333
135.563;1328
135.625;1335
135.688;1333
135.750;1328
135.813;1333
135.875;1328
135.938;1330
136.000;1320
136.063;1320
136.125;1330
136.188;1335
136.250;1325
136.313;1320
136.375;1325
136.438;1323
136.500;1333
136.563;1325
136.625;1325
136.688;1315
136.750;1320
136.813;1333
136.875;1330
136.938;1318
137.000;1318
137.063;1325
137.125;1315
137.188;1320
137.250;1323
137.313;1330
137.375;1318
137.438;1325
137.500;1328
137.563;1318
137.625;1325
137.688;1323
137.750;1328
137.813;1323
137.875;1330
137.938;1323
138.000;1325
138.063;1323
138.125;1320
138.188;1330
138.250;1311
138.313;1315
138.375;1325
138.438;1335
138.500;1320
138.563;1330
138.625;1325
138.688;1323
138.750;1325
138.813;1325
138.875;1325
138.938;1325
139.000;1325
139.063;1318
139.125;1330
139.188;1330
139.250;1335
139.313;1315
139.375;1328
139.438;1323
139.500;1320
139.563;1330
139.625;1330
139.688;1313
139.750;1330
139.813;1328
139.875;1333
139.938;1325
140.000;1330
140.063;1328
140.125;1323
140.188;1320
140.250;1330
140.313;1315
140.375;1323
140.438;1320
140.500;1335
140.563;1325
140.625;1328
140.688;1325
140.750;1335
140.813;1323
140.875;1323
140.938;1337
141.000;1333
141.063;1330
141.125;1328
141.188;1323
141.250;1328
141.313;1330
141.375;1328
141.438;1325
141.500;1330
141.563;1340
141.625;1333
141.688;1325
141.750;1328
141.813;1325
141.875;1333
141.938;1337
142.000;1333
142.063;1337
142.125;1335
142.188;1328
142.250;1330
142.313;1330
142.375;1337
142.438;1328
142.500;1328
142.563;1335
142.625;1340
142.688;1333
142.750;1330
142.813;1337
142.875;1325
142.938;1335
143.000;1330
143.063;1335
143.125;1333
143.188;1333
143.250;1335
143.313;1340
143.375;1333
143.438;1328
143.500;1330
143.563;1330
143.625;1328
143.688;1330
143.750;1340
143.813;1333
143.875;1342
143.938;1333
144.000;1333
144.063;1337
144.125;1335
144.188;1333
144.250;1333
144.313;1337
144.375;1340
144.438;1335
144.500;1337
144.563;1333
144.625;1337
144.688;1335
144.750;1347
144.813;1333
144.875;1340
144.938;1337
145.000;1330
145.063;1335
145.125;1340
145.188;1337
145.250;1328
145.313;1337
145.375;1337
145.438;1340
145.500;1345
145.563;1335
145.625;1337
145.688;1328
145.750;1335
145.813;1340
145.875;1337
145.938;1335
146.000;1330
146.063;1337
146.125;1335
146.188;1333
146.250;1335
146.313;1335
146.375;1340
146.438;1335
146.500;1328
146.563;1330
146.625;1340
146.688;1330
146.750;1335
146.813;1330
146.875;1335
146.938;1335
147.000;1333
147.063;1320
147.125;1333
147.188;1330
147.250;1337
147.313;1328
147.375;1333
147.438;1337
147.500;1323
147.563;1320
147.625;1325
147.688;1328
147.750;1330
147.813;1330
147.875;1328
147.938;1323
148.000;1325
148.063;1328
148.125;1323
148.188;1325
148.250;1323
148.313;1335
148.375;1325
148.438;1330
148.500;1315
148.563;1325
148.625;1325
148.688;1333
148.750;1320
148.813;1325
148.875;1323
148.938;1328
149.000;1328
149.063;1328
149.125;1333
149.188;1325
149.250;1328
149.313;1325
149.375;1323
149.438;1328
149.500;1330
149.563;1330
149.625;1328
149.688;1335
149.750;1328
149.813;1323
149.875;1325
149.938;1328
150.000;1350
150.063;1362
150.125;1374
150.188;1347
150.250;1350
150.313;1335
150.375;1330
150.438;1323
150.500;1323
150.563;1330
150.625;1325
150.688;1325
150.750;1328
150.813;1318
150.875;1323
150.938;1325
151.000;1330
151.063;1325
151.125;1320
151.188;1320
151.250;1328
151.313;1318
151.375;1330
151.438;1325
151.500;1325
151.563;1330
151.625;1325
151.688;1333
151.750;1320
151.813;1325
151.875;1323
151.938;1328
152.000;1330
152.063;1320
152.125;1320
152.188;1320
152.250;1315
152.313;1320
152.375;1318
152.438;1320
152.500;1323
152.563;1323
152.625;1325
152.688;1325
152.750;1320
152.813;1325
152.875;1323
152.938;1340
153.000;1320
153.063;1315
153.125;1335
153.188;1330
153.250;1325
153.313;1320
153.375;1320
153.438;1328
153.500;1328
153.563;1328
153.625;1330
153.688;1323
153.750;1330
153.813;1330
153.875;1318
153.938;1333
154.000;1323
154.063;1315
154.125;1330
154.188;1335
154.250;1333
154.313;1318
154.375;1330
154.438;1330
154.500;1323
154.563;1333
154.625;1337
154.688;1335
154.750;1328
154.813;1333
154.875;1330
154.938;1328
155.000;1335
155.063;1333
155.125;1333
155.188;1320
155.250;1333
155.313;1328
155.375;1333
155.438;1328
155.500;1335
155.563;1330
155.625;1335
155.688;1335
155.750;1333
155.813;1328
155.875;1335
155.938;1335
156.000;1325
156.063;1330
156.125;1328
156.188;1330
156.250;1330
156.313;1333
156.375;1330
156.438;1330
156.500;1330
156.563;1340
156.625;1333
156.688;1328
156.750;1335
156.813;1333
156.875;1330
156.938;1328
157.000;1328
157.063;1333
157.125;1335
157.188;1325
157.250;1333
157.313;1323
157.375;1333
157.438;1337
157.500;1333
157.563;1330
157.625;1333
157.688;1328
157.750;1325
157.813;1330
157.875;1333
157.938;1337
158.000;1337
158.063;1328
158.125;1333
158.188;1330
158.250;1328
158.313;1328
158.375;1325
158.438;1325
158.500;1333
158.563;1342
158.625;1323
158.688;1335
158.750;1335
158.813;1318
158.875;1318
158.938;1333
159.000;1328
159.063;1318
159.125;1330
159.188;1328
159.250;1335
159.313;1328
159.375;1323
159.438;1323
159.500;1328
159.563;1320
159.625;1320
159.688;1325
159.750;1325
159.813;1325
159.875;1320
159.938;1323
160.000;1323
160.063;1318
160.125;1323
160.188;1318
160.250;1325
160.313;1328
160.375;1315
160.438;1323
160.500;1323
160.563;1323
160.625;1325
160.688;1320
160.750;1330
160.813;1328
160.875;1323
160.938;1323
161.000;1328
161.063;1330
161.125;1320
161.188;1318
161.250;1318
161.313;1323
161.375;1315
161.438;1323
161.500;1318
161.563;1328
161.625;1325
161.688;1318
161.750;1325
161.813;1325
161.875;1318
161.938;1325
162.000;1330
162.063;1320
162.125;1328
162.188;1325
162.250;1320
162.313;1315
162.375;1325
162.438;1315
162.500;1323
162.563;1325
162.625;1323
162.688;1318
162.750;1318
162.813;1318
162.875;1323
162.938;1313
163.000;1315
163.063;1315
163.125;1315
163.188;1318
163.250;1323
163.313;1323
163.375;1318
163.438;1325
163.500;1308
163.563;1323
163.625;1323
163.688;1320
163.750;1315
163.813;1318
163.875;1318
163.938;1313
164.000;1313
164.063;1323
164.125;1318
164.188;1325
164.250;1311
164.313;1318
164.375;1320
164.438;1318
164.500;1330
164.563;1315
164.625;1323
164.688;1323
164.750;1318
164.813;1315
164.875;1318
164.938;1320
165.000;1325
165.063;1325
165.125;1315
165.188;1311
165.250;1323
165.313;1323
165.375;1323
165.438;1318
165.500;1320
165.563;1315
165.625;1315
165.688;1320
165.750;1320
165.813;1313
165.875;1311
165.938;1315
166.000;1325
166.063;1318
166.125;1318
166.188;1318
166.250;1315
166.313;1320
166.375;1313
166.438;1320
166.500;1318
166.563;1325
166.625;1315
166.688;1315
166.750;1315
166.813;1315
166.875;1325
166.938;1311
167.000;1313
167.063;1323
167.125;1323
167.188;1315
167.250;1315
167.313;1323
167.375;1323
167.438;1313
167.500;1318
167.563;1318
167.625;1325
167.688;1318
167.750;1313
167.813;1328
167.875;1315
167.938;1318
168.000;1315
168.063;1318
168.125;1320
168.188;1315
168.250;1313
168.313;1318
168.375;1318
168.438;1313
168.500;1318
168.563;1315
168.625;1318
168.688;1318
168.750;1315
168.813;1311
168.875;1311
168.938;1315
169.000;1311
169.063;1325
169.125;1323
169.188;1308
169.250;1306
169.313;1320
169.375;1318
169.438;1313
169.500;1306
169.563;1306
169.625;1313
169.688;1301
169.750;1308
169.813;1306
169.875;1313
169.938;1301
170.000;1303
170.063;1301
170.125;1298
170.188;1306
170.250;1298
170.313;1303
170.375;1306
170.438;1308
170.500;1296
170.563;1296
170.625;1301
170.688;1298
170.750;1286
170.813;1293
170.875;1293
170.938;1293
171.000;1291
171.063;1296
171.125;1364
171.188;1381
171.250;1381
171.313;1381
171.375;1381
171.438;1396
171.500;1401
171.563;1406
171.625;1403
171.688;1401
171.750;1391
171.813;1372
171.875;1359
171.938;1367
172.000;1357
172.063;1359
172.125;1357
172.188;1347
172.250;1352
172.313;1345
172.375;1359
172.438;1350
172.500;1352
172.563;1359
172.625;1357
172.688;1357
172.750;1347
172.813;1347
172.875;1350
172.938;1347
173.000;1354
173.063;1342
173.125;1352
173.188;1340
173.250;1337
173.313;1347
173.375;1345
173.438;1345
173.500;1342
173.563;1347
173.625;1347
173.688;1345
173.750;1340
173.813;1350
173.875;1340
173.938;1345
174.000;1342
174.063;1342
174.125;1340
174.188;1342
174.250;1340
174.313;1347
174.375;1342
174.438;1345
174.500;1340
174.563;1350
174.625;1337
174.688;1347
174.750;1342
174.813;1340
174.875;1340
174.938;1340
175.000;1340
175.063;1340
175.125;1337
175.188;1342
175.250;1337
175.313;1335
175.375;1337
175.438;1337
175.500;1337
175.563;1342
175.625;1333
175.688;1335
175.750;1342
175.813;1340
175.875;1330
175.938;1342
176.000;1345
176.063;1342
176.125;1335
176.188;1342
176.250;1337
176.313;1337
176.375;1340
176.438;1340
176.500;1345
176.563;1342
176.625;1335
176.688;1340
176.750;1337
176.813;1337
176.875;1333
176.938;1342
177.000;1335
177.063;1333
177.125;1333
177.188;1340
177.250;1330
177.313;1330
177.375;1342
177.438;1333
177.500;1333
177.563;1335
177.625;1345
177.688;1337
177.750;1330
177.813;1333
177.875;1340
177.938;1323
178.000;1337
178.063;1337
178.125;1328
178.188;1337
178.250;1340
178.313;1337
178.375;1350
178.438;1342
178.500;1335
178.563;1335
178.625;1325
178.688;1340
178.750;1333
178.813;1330
178.875;1335
178.938;1340
179.000;1342
179.063;1330
179.125;1335
179.188;1335
179.250;1335
179.313;1335
179.375;1335
179.438;1335
179.500;1337
179.563;1333
179.625;1333
179.688;1340
179.750;1342
179.813;1335
179.875;1337
179.938;1328
180.000;1337
180.063;1330
180.125;1337
180.188;1337
180.250;1330
180.313;1330
180.375;1335
180.438;1337
180.500;1328
180.563;1342
180.625;1333
180.688;1337
180.750;1330
180.813;1337
180.875;1340
180.938;1335
181.000;1333
181.063;1333
181.125;1337
181.188;1330
181.250;1328
181.313;1335
181.375;1335
181.438;1325
181.500;1328
181.563;1337
181.625;1337
181.688;1340
181.750;1335
181.813;1330
181.875;1342
181.938;1328
182.000;1340
182.063;1330
182.125;1330
182.188;1337
182.250;1333
182.313;1337
182.375;1335
182.438;1330
182.500;1328
182.563;1333
182.625;1325
182.688;1330
182.750;1337
182.813;1333
182.875;1325
182.938;1325
183.000;1333
183.063;1333
183.125;1340
183.188;1323
183.250;1330
183.313;1323
183.375;1323
183.438;1328
183.500;1323
183.563;1335
183.625;1325
183.688;1340
183.750;1328
183.813;1330
183.875;1323
183.938;1328
184.000;1325
184.063;1325
184.125;1320
184.188;1340
184.250;1330
184.313;1325
184.375;1323
184.438;1330
184.500;1330
184.563;1333
184.625;1315
184.688;1320
184.750;1330
184.813;1330
184.875;1323
184.938;1335
185.000;1325
185.063;1337
185.125;1337
185.188;1328
185.250;1328
185.313;1325
185.375;1330
185.438;1333
185.500;1325
185.563;1330
185.625;1330
185.688;1323
185.750;1320
185.813;1333
185.875;1333
185.938;1320
186.000;1325
186.063;1325
186.125;1328
186.188;1333
186.250;1330
186.313;1333
186.375;1323
186.438;1330
186.500;1330
186.563;1315
186.625;1325
186.688;1325
186.750;1330
186.813;1318
186.875;1315
186.938;1328
187.000;1325
187.063;1318
187.125;1315
187.188;1335
187.250;1315
187.313;1325
187.375;1323
187.438;1333
187.500;1323
187.563;1330
187.625;1315
187.688;1325
187.750;1320
187.813;1328
187.875;1325
187.938;1328
188.000;1318
188.063;1323
188.125;1320
188.188;1328
188.250;1323
188.313;1325
188.375;1323
188.438;1325
188.500;1325
188.563;1313
188.625;1333
188.688;1323
188.750;1318
188.813;1325
188.875;1325
188.938;1328
189.000;1320
189.063;1330
189.125;1320
189.188;1325
189.250;1313
189.313;1325
189.375;1323
189.438;1320
189.500;1328
189.563;1323
189.625;1328
189.688;1323
189.750;1315
189.813;1313
189.875;1323
189.938;1328
190.000;1325
190.063;1320
190.125;1303
190.188;1323
190.250;1320
190.313;1320
190.375;1318
190.438;1325
190.500;1320
190.563;1323
190.625;1323
190.688;1330
190.750;1330
190.813;1328
190.875;1318
190.938;1328
191.000;1320
191.063;1320
191.125;1323
191.188;1325
191.250;1325
191.313;1323
191.375;1315
191.438;1325
191.500;1325
191.563;1318
191.625;1325
191.688;1325
191.750;1325
191.813;1320
191.875;1325
191.938;1328
192.000;1330
192.063;1323
192.125;1328
192.188;1330
192.250;1325
192.313;1328
192.375;1318
192.438;1330
192.500;1323
192.563;1323
192.625;1328
192.688;1325
192.750;1328
192.813;1323
192.875;1330
192.938;1325
193.000;1330
193.063;1328
193.125;1325
193.188;1328
193.250;1325
193.313;1330
193.375;1340
193.438;1325
193.500;1318
193.563;1315
193.625;1330
193.688;1333
193.750;1328
193.813;1328
193.875;1325
193.938;1328
194.000;1325
194.063;1318
194.125;1318
194.188;1328
194.250;1325
194.313;1330
194.375;1325
194.438;1320
194.500;1325
194.563;1323
194.625;1328
194.688;1325
194.750;1320
194.813;1318
194.875;1328
194.938;1325
195.000;1320
195.063;1325
195.125;1320
195.188;1313
195.250;1325
195.313;1328
195.375;1318
195.438;1330
195.500;1325
195.563;1330
195.625;1328
195.688;1333
195.750;1328
195.813;1320
195.875;1328
195.938;1318
196.000;1318
196.063;1328
196.125;1320
196.188;1318
196.250;1325
196.313;1323
196.375;1320
196.438;1320
196.500;1325
196.563;1325
196.625;1320
196.688;1328
196.750;1323
196.813;1330
196.875;1323
196.938;1315
197.000;1315
197.063;1330
197.125;1313
197.188;1325
197.250;1315
197.313;1315
197.375;1320
197.438;1323
197.500;1325
197.563;1320
197.625;1323
197.688;1325
197.750;1320
197.813;1318
197.875;1315
197.938;1325
198.000;1318
198.063;1325
198.125;1325
198.188;1325
198.250;1328
198.313;1325
198.375;1315
198.438;1328
198.500;1318
198.563;1320
198.625;1323
198.688;1315
198.750;1330
198.813;1318
198.875;1328
198.938;1323
199.000;1325
199.063;1318
199.125;1315
199.188;1318
199.250;1323
199.313;1320
199.375;1323
199.438;1328
199.500;1323
199.563;1325
199.625;1315
199.688;1313
199.750;1323
199.813;1311
199.875;1325
199.938;1345
200.000;1403
200.063;1437
200.125;1477
200.188;1437
200.250;1428
200.313;1369
200.375;1335
200.438;1323
200.500;1323
200.563;1325
200.625;1320
200.688;1315
200.750;1323
200.813;1318
200.875;1325
200.938;1311
201.000;1320
201.063;1330
201.125;1325
201.188;1323
201.250;1323
201.313;1330
201.375;1323
201.438;1315
201.500;1318
201.563;1318
201.625;1330
201.688;1320
201.750;1323
201.813;1323
201.875;1330
201.938;1315
202.000;1328
202.063;1323
202.125;1315
202.188;1308
202.250;1328
202.313;1325
202.375;1328
202.438;1328
202.500;1325
202.563;1315
202.625;1330
202.688;1318
202.750;1323
202.813;1328
202.875;1325
202.938;1325
203.000;1325
203.063;1320
203.125;1315
203.188;1323
203.250;1315
203.313;1311
203.375;1328
203.438;1323
203.500;1325
203.563;1325
203.625;1323
203.688;1328
203.750;1315
203.813;1323
203.875;1315
203.938;1318
204.000;1330
204.063;1318
204.125;1325
204.188;1323
204.250;1315
204.313;1337
204.375;1328
204.438;1320
204.500;1323
204.563;1318
204.625;1320
204.688;1323
204.750;1323
204.813;1315
204.875;1315
204.938;1325
205.000;1335
205.063;1318
205.125;1328
205.188;1328
205.250;1323
205.313;1325
205.375;1335
205.438;1323
205.500;1320
205.563;1320
205.625;1318
205.688;1323
205.750;1318
205.813;1328
205.875;1323
205.938;1323
206.000;1325
206.063;1320
206.125;1325
206.188;1318
206.250;1333
206.313;1325
206.375;1318
206.438;1323
206.500;1320
206.563;1323
206.625;1323
206.688;1325
206.750;1323
206.813;1325
206.875;1328
206.938;1320
207.000;1323
207.063;1330
207.125;1333
207.188;1318
207.250;1325
207.313;1323
207.375;1320
207.438;1328
207.500;1320
207.563;1320
207.625;1313
207.688;1325
207.750;1323
207.813;1330
207.875;1335
207.938;1330
208.000;1318
208.063;1320
208.125;1318
208.188;1318
208.250;1323
208.313;1315
208.375;1323
208.438;1325
208.500;1318
208.563;1325
208.625;1318
208.688;1315
208.750;1323
208.813;1323
208.875;1330
208.938;1323
209.000;1333
209.063;1323
209.125;1320
209.188;1328
209.250;1315
209.313;1323
209.375;1325
209.438;1328
209.500;1325
209.563;1323
209.625;1323
209.688;1320
209.750;1323
209.813;1315
209.875;1323
209.938;1320
210.000;1325
210.063;1318
210.125;1325
210.188;1315
210.250;1325
210.313;1325
210.375;1323
210.438;1330
210.500;1330
210.563;1320
210.625;1320
210.688;1315
210.750;1318
210.813;1323
210.875;1323
210.938;1325
211.000;1315
211.063;1335
211.125;1320
211.188;1320
211.250;1320
211.313;1318
211.375;1311
211.438;1313
211.500;1325
211.563;1323
211.625;1325
211.688;1320
211.750;1315
211.813;1333
211.875;1320
211.938;1330
212.000;1320
212.063;1328
212.125;1320
212.188;1320
212.250;1318
212.313;1325
212.375;1318
212.438;1315
212.500;1328
212.563;1328
212.625;1325
212.688;1311
212.750;1323
212.813;1328
212.875;1320
212.938;1315
213.000;1323
213.063;1318
213.125;1323
213.188;1330
213.250;1318
213.313;1318
213.375;1325
213.438;1323
213.500;1318
213.563;1320
213.625;1323
213.688;1315
213.750;1315
213.813;1311
213.875;1320
213.938;1318
214.000;1328
214.063;1325
214.125;1318
214.188;1325
214.250;1328
214.313;1323
214.375;1315
214.438;1315
214.500;1325
214.563;1323
214.625;1323
214.688;1330
214.750;1320
214.813;1315
214.875;1325
214.938;1320
215.000;1320
215.063;1333
215.125;1311
215.188;1325
215.250;1325
215.313;1320
215.375;1320
215.438;1313
215.500;1318
215.563;1318
215.625;1325
215.688;1323
215.750;1318
215.813;1330
215.875;1328
215.938;1320
216.000;1325
216.063;1323
216.125;1320
216.188;1325
216.250;1328
216.313;1328
216.375;1325
216.438;1330
216.500;1328
216.563;1328
216.625;1318
216.688;1328
216.750;1315
216.813;1325
216.875;1323
216.938;1335
217.000;1333
217.063;1315
217.125;1315
217.188;1323
217.250;1315
217.313;1320
217.375;1313
217.438;1330
217.500;1318
217.563;1325
217.625;1325
217.688;1328
217.750;1315
217.813;1320
217.875;1318
217.938;1328
218.000;1325
218.063;1325
218.125;1325
218.188;1325
218.250;1323
218.313;1323
218.375;1328
218.438;1320
218.500;1318
218.563;1323
218.625;1340
218.688;1323
218.750;1330
218.813;1333
218.875;1320
218.938;1318
219.000;1323
219.063;1320
219.125;1330
219.188;1328
219.250;1318
219.313;1323
219.375;1318
219.438;1328
219.500;1323
219.563;1328
219.625;1320
219.688;1323
219.750;1323
219.813;1328
219.875;1320
219.938;1325
220.000;1337
220.063;1325
220.125;1337
220.188;1318
220.250;1330
220.313;1323
220.375;1330
220.438;1323
220.500;1323
220.563;1325
220.625;1320
220.688;1325
220.750;1325
220.813;1328
220.875;1320
220.938;1320
221.000;1320
221.063;1325
221.125;1318
221.188;1325
221.250;1333
221.313;1330
221.375;1333
221.438;1315
221.500;1325
221.563;1325
221.625;1320
221.688;1325
221.750;1333
221.813;1315
221.875;1323
221.938;1323
222.000;1323
222.063;1328
222.125;1315
222.188;1325
222.250;1330
222.313;1325
222.375;1328
222.438;1318
222.500;1328
222.563;1318
222.625;1320
222.688;1325
222.750;1330
222.813;1320
222.875;1320
222.938;1328
223.000;1318
223.063;1325
223.125;1328
223.188;1323
223.250;1325
223.313;1325
223.375;1320
223.438;1315
223.500;1325
223.563;1308
223.625;1323
223.688;1323
223.750;1328
223.813;1325
223.875;1323
223.938;1328
224.000;1325
224.063;1323
224.125;1318
224.188;1323
224.250;1323
224.313;1323
224.375;1330
224.438;1328
224.500;1323
224.563;1323
224.625;1323
224.688;1328
224.750;1328
224.813;1320
224.875;1320
224.938;1330
225.000;1328
225.063;1320
225.125;1323
225.188;1323
225.250;1328
225.313;1315
225.375;1333
225.438;1320
225.500;1328
225.563;1325
225.625;1330
225.688;1320
225.750;1333
225.813;1320
225.875;1323
225.938;1323
226.000;1323
226.063;1323
226.125;1325
226.188;1323
226.250;1323
226.313;1330
226.375;1318
226.438;1323
226.500;1320
226.563;1323
226.625;1323
226.688;1325
226.750;1320
226.813;1328
226.875;1323
226.938;1330
227.000;1328
227.063;1315
227.125;1313
227.188;1325
227.250;1323
227.313;1318
227.375;1320
227.438;1325
227.500;1335
227.563;1318
227.625;1323
227.688;1328
227.750;1323
227.813;1325
227.875;1335
227.938;1325
228.000;1325
228.063;1325
228.125;1323
228.188;1337
228.250;1323
228.313;1320
228.375;1318
228.438;1328
228.500;1320
228.563;1328
228.625;1328
228.688;1328
228.750;1325
228.813;1311
228.875;1318
228.938;1328
229.000;1333
229.063;1325
229.125;1320
229.188;1325
229.250;1325
229.313;1323
229.375;1333
229.438;1320
229.500;1330
229.563;1328
229.625;1323
229.688;1328
229.750;1328
229.813;1328
229.875;1330
229.938;1328
230.000;1323
230.063;1325
230.125;1325
230.188;1320
230.250;1325
230.313;1320
230.375;1325
230.438;1325
230.500;1320
230.563;1325
230.625;1335
230.688;1345
230.750;1328
230.813;1333
230.875;1335
230.938;1330
231.000;1328
231.063;1337
231.125;1315
231.188;1325
231.250;1318
231.313;1318
231.375;1318
231.438;1335
231.500;1337
231.563;1323
231.625;1330
231.688;1328
231.750;1325
231.813;1328
231.875;1318
231.938;1325
232.000;1335
232.063;1323
232.125;1335
232.188;1320
232.250;1333
232.313;1333
232.375;1328
232.438;1318
232.500;1333
232.563;1328
232.625;1318
232.688;1330
232.750;1335
232.813;1320
232.875;1320
232.938;1333
233.000;1328
233.063;1333
233.125;1318
233.188;1328
233.250;1328
233.313;1320
233.375;1320
233.438;1330
233.500;1330
233.563;1330
233.625;1325
233.688;1328
233.750;1325
233.813;1335
233.875;1330
233.938;1325
234.000;1337
234.063;1325
234.125;1315
234.188;1328
234.250;1330
234.313;1323
234.375;1328
234.438;1323
234.500;1328
234.563;1328
234.625;1330
234.688;1328
234.750;1328
234.813;1337
234.875;1335
234.938;1333
235.000;1328
235.063;1335
235.125;1320
235.188;1328
235.250;1328
235.313;1333
235.375;1335
235.438;1318
235.500;1337
235.563;1330
235.625;1328
235.688;1325
235.750;1328
235.813;1325
235.875;1328
235.938;1330
236.000;1320
236.063;1328
236.125;1325
236.188;1330
236.250;1325
236.313;1328
236.375;1335
236.438;1328
236.500;1320
236.563;1330
236.625;1320
236.688;1323
236.750;1328
236.813;1325
236.875;1325
236.938;1337
237.000;1320
237.063;1335
237.125;1323
237.188;1335
237.250;1330
237.313;1325
237.375;1325
237.438;1325
237.500;1330
237.563;1328
237.625;1325
237.688;1325
237.750;1330
237.813;1337
237.875;1330
237.938;1323
238.000;1335
238.063;1325
238.125;1328
238.188;1323
238.250;1330
238.313;1330
238.375;1325
238.438;1330
238.500;1330
238.563;1328
238.625;1330
238.688;1328
238.750;1335
238.813;1333
238.875;1328
238.938;1333
239.000;1325
239.063;1325
239.125;1328
239.188;1328
239.250;1330
239.313;1333
239.375;1328
239.438;1330
239.500;1325
239.563;1328
239.625;1328
239.688;1328
239.750;1323
239.813;1335
239.875;1330
239.938;1333
240.000;1330
240.063;1333
240.125;1323
240.188;1328
240.250;1335
240.313;1330
240.375;1335
240.438;1328
240.500;1325
240.563;1330
240.625;1335
240.688;1325
240.750;1335
240.813;1320
240.875;1340
240.938;1328
241.000;1333
241.063;1325
241.125;1330
241.188;1330
241.250;1325
241.313;1328
241.375;1328
241.438;1328
241.500;1325
241.563;1328
241.625;1342
241.688;1340
241.750;1330
241.813;1328
241.875;1333
241.938;1330
242.000;1325
242.063;1328
242.125;1335
242.188;1330
242.250;1333
242.313;1330
242.375;1335
242.438;1330
242.500;1325
242.563;1330
242.625;1320
242.688;1325
242.750;1333
242.813;1333
242.875;1335
242.938;1330
243.000;1330
243.063;1330
243.125;1328
243.188;1325
243.250;1325
243.313;1330
243.375;1340
243.438;1330
243.500;1333
243.563;1323
243.625;1328
243.688;1333
243.750;1337
243.813;1333
243.875;1333
243.938;1328
244.000;1328
244.063;1333
244.125;1330
244.188;1333
244.250;1335
244.313;1328
244.375;1330
244.438;1340
244.500;1320
244.563;1330
244.625;1330
244.688;1335
244.750;1337
244.813;1335
244.875;1335
244.938;1337
245.000;1335
245.063;1335
245.125;1340
245.188;1330
245.250;1337
245.313;1333
245.375;1337
245.438;1325
245.500;1337
245.563;1330
245.625;1335
245.688;1337
245.750;1328
245.813;1335
245.875;1340
245.938;1333
246.000;1337
246.063;1330
246.125;1337
246.188;1333
246.250;1333
246.313;1340
246.375;1342
246.438;1335
246.500;1333
246.563;1337
246.625;1333
246.688;1337
246.750;1330
246.813;1333
246.875;1340
246.938;1342
247.000;1330
247.063;1335
247.125;1333
247.188;1337
247.250;1337
247.313;1335
247.375;1325
247.438;1337
247.500;1330
247.563;1333
247.625;1340
247.688;1333
247.750;1328
247.813;1333
247.875;1335
247.938;1350
248.000;1333
248.063;1337
248.125;1330
248.188;1335
248.250;1333
248.313;1330
248.375;1340
248.438;1328
248.500;1335
248.563;1340
248.625;1330
248.688;1337
248.750;1337
248.813;1330
248.875;1337
248.938;1340
249.000;1330
249.063;1328
249.125;1337
249.188;1340
249.250;1335
249.313;1335
249.375;1335
249.438;1335
249.500;1335
249.563;1328
249.625;1340
249.688;1335
249.750;1333
249.813;1342
249.875;1342
249.938;1342
250.000;1354
250.063;1364
250.125;1376
250.188;1347
250.250;1359
250.313;1347
250.375;1337
250.438;1337
250.500;1337
250.563;1333
250.625;1340
250.688;1340
250.750;1342
250.813;1335
250.875;1333
250.938;1325
251.000;1340
251.063;1330
251.125;1342
251.188;1340
251.250;1333
251.313;1337
251.375;1330
251.438;1335
251.500;1337
251.563;1335
251.625;1333
251.688;1340
251.750;1342
251.813;1333
251.875;1340
251.938;1335
252.000;1340
252.063;1345
252.125;1333
252.188;1337
252.250;1340
252.313;1335
252.375;1337
252.438;1340
252.500;1333
252.563;1335
252.625;1330
252.688;1337
252.750;1340
252.813;1333
252.875;1342
252.938;1340
253.000;1333
253.063;1337
253.125;1340
253.188;1337
253.250;1337
253.313;1325
253.375;1333
253.438;1335
253.500;1337
253.563;1337
253.625;1333
253.688;1330
253.750;1340
253.813;1330
253.875;1340
253.938;1333
254.000;1337
254.063;1342
254.125;1337
254.188;1340
254.250;1337
254.313;1337
254.375;1342
254.438;1335
254.500;1335
254.563;1337
254.625;1342
254.688;1335
254.750;1335
254.813;1345
254.875;1342
254.938;1345
255.000;1337
255.063;1330
255.125;1345
255.188;1335
255.250;1352
255.313;1345
255.375;1342
255.438;1345
255.500;1340
255.563;1345
255.625;1335
255.688;1335
255.750;1347
255.813;1342
255.875;1337
255.938;1342
256.000;1342
256.063;1337
256.125;1342
256.188;1340
256.250;1340
256.313;1335
256.375;1337
256.438;1335
256.500;1345
256.563;1342
256.625;1342
256.688;1340
256.750;1340
256.813;1342
256.875;1335
256.938;1333
257.000;1340
257.063;1335
257.125;1342
257.188;1340
257.250;1345
257.313;1347
257.375;1347
257.438;1352
257.500;1345
257.563;1345
257.625;1352
257.688;1342
257.750;1342
257.813;1337
257.875;1337
257.938;1335
258.000;1345
258.063;1345
258.125;1342
258.188;1342
258.250;1350
258.313;1345
258.375;1350
258.438;1342
258.500;1337
258.563;1350
258.625;1345
258.688;1337
258.750;1337
258.813;1342
258.875;1347
258.938;1340
259.000;1340
259.063;1333
259.125;1340
259.188;1345
259.250;1345
259.313;1350
259.375;1345
259.438;1352
259.500;1347
259.563;1350
259.625;1340
259.688;1345
259.750;1345
259.813;1335
259.875;1340
259.938;1342
260.000;1350
260.063;1342
260.125;1335
260.188;1342
260.250;1340
260.313;1340
260.375;1350
260.438;1342
260.500;1342
260.563;1342
260.625;1342
260.688;1342
260.750;1342
260.813;1340
260.875;1342
260.938;1342
261.000;1352
261.063;1337
261.125;1342
261.188;1342
261.250;1347
261.313;1347
261.375;1342
261.438;1345
261.500;1350
261.563;1345
261.625;1337
261.688;1342
261.750;1340
261.813;1335
261.875;1347
261.938;1347
262.000;1342
262.063;1335
262.125;1345
262.188;1337
262.250;1345
262.313;1340
262.375;1350
262.438;1347
262.500;1340
262.563;1342
262.625;1345
262.688;1333
262.750;1342
262.813;1337
262.875;1340
262.938;1337
263.000;1333
263.063;1350
263.125;1340
263.188;1337
263.250;1347
263.313;1342
263.375;1340
263.438;1335
263.500;1350
263.563;1337
263.625;1335
263.688;1345
263.750;1347
263.813;1333
263.875;1342
263.938;1342
264.000;1340
264.063;1340
264.125;1337
264.188;1347
264.250;1347
264.313;1335
264.375;1340
264.438;1342
264.500;1352
264.563;1333
264.625;1350
264.688;1345
264.750;1342
264.813;1347
264.875;1345
264.938;1337
265.000;1342
265.063;1337
265.125;1342
265.188;1330
265.250;1345
265.313;1347
265.375;1345
265.438;1342
265.500;1340
265.563;1345
265.625;1345
265.688;1345
265.750;1342
265.813;1342
265.875;1337
265.938;1342
266.000;1342
266.063;1342
266.125;1335
266.188;1345
266.250;1337
266.313;1345
266.375;1345
266.438;1337
266.500;1347
266.563;1342
266.625;1350
266.688;1333
266.750;1345
266.813;1345
266.875;1345
266.938;1345
267.000;1342
267.063;1345
267.125;1345
267.188;1352
267.250;1340
267.313;1342
267.375;1347
267.438;1337
267.500;1342
267.563;1347
267.625;1345
267.688;1340
267.750;1345
267.813;1342
267.875;1335
267.938;1347
268.000;1352
268.063;1345
268.125;1345
268.188;1347
268.250;1347
268.313;1335
268.375;1347
268.438;1340
268.500;1337
268.563;1345
268.625;1354
268.688;1340
268.750;1357
268.813;1345
268.875;1342
268.938;1350
269.000;1342
269.063;1347
269.125;1357
269.188;1337
269.250;1345
269.313;1342
269.375;1354
269.438;1345
269.500;1350
269.563;1347
269.625;1354
269.688;1342
269.750;1352
269.813;1347
269.875;1357
269.938;1352
270.000;1335
270.063;1345
270.125;1350
270.188;1347
270.250;1347
270.313;1347
270.375;1354
270.438;1345
270.500;1347
270.563;1342
270.625;1342
270.688;1347
270.750;1342
270.813;1357
270.875;1347
270.938;1345
271.000;1350
271.063;1347
271.125;1345
271.188;1354
271.250;1347
271.313;1352
271.375;1350
271.438;1347
271.500;1347
271.563;1345
271.625;1350
271.688;1350
271.750;1347
271.813;1337
271.875;1352
271.938;1345
272.000;1354
272.063;1347
272.125;1347
272.188;1345
272.250;1345
272.313;1342
272.375;1340
272.438;1345
272.500;1342
272.563;1342
272.625;1350
272.688;1345
272.750;1337
272.813;1347
272.875;1347
272.938;1352
273.000;1340
273.063;1347
273.125;1350
273.188;1342
273.250;1345
273.313;1340
273.375;1342
273.438;1357
273.500;1352
273.563;1345
273.625;1340
273.688;1354
273.750;1337
273.813;1350
273.875;1342
273.938;1340
274.000;1350
274.063;1354
274.125;1345
274.188;1342
274.250;1345
274.313;1340
274.375;1347
274.438;1347
274.500;1340
274.563;1345
274.625;1359
274.688;1342
274.750;1340
274.813;1340
274.875;1352
274.938;1340
275.000;1354
275.063;1335
275.125;1340
275.188;1342
275.250;1337
275.313;1342
275.375;1345
275.438;1342
275.500;1333
275.563;1342
275.625;1335
275.688;1347
275.750;1335
275.813;1330
275.875;1342
275.938;1342
276.000;1347
276.063;1340
276.125;1342
276.188;1340
276.250;1345
276.313;1340
276.375;1352
276.438;1342
276.500;1350
276.563;1347
276.625;1347
276.688;1352
276.750;1333
276.813;1340
276.875;1350
276.938;1340
277.000;1337
277.063;1337
277.125;1333
277.188;1340
277.250;1335
277.313;1345
277.375;1345
277.438;1340
277.500;1342
277.563;1345
277.625;1345
277.688;1352
277.750;1350
277.813;1342
277.875;1337
277.938;1347
278.000;1347
278.063;1345
278.125;1342
278.188;1347
278.250;1350
278.313;1342
278.375;1357
278.438;1345
278.500;1340
278.563;1342
278.625;1337
278.688;1347
278.750;1354
278.813;1337
278.875;1345
278.938;1340
279.000;1354
279.063;1354
279.125;1345
279.188;1347
279.250;1345
279.313;1350
279.375;1345
279.438;1347
279.500;1347
279.563;1350
279.625;1350
279.688;1350
279.750;1340
279.813;1342
279.875;1345
279.938;1345
280.000;1342
280.063;1345
280.125;1350
280.188;1345
280.250;1340
280.313;1352
280.375;1345
280.438;1354
280.500;1345
280.563;1352
280.625;1350
280.688;1350
280.750;1354
280.813;1345
280.875;1345
280.938;1354
281.000;1345
281.063;1352
281.125;1352
281.188;1350
281.250;1347
281.313;1342
281.375;1347
281.438;1342
281.500;1342
281.563;1350
281.625;1352
281.688;1347
281.750;1345
281.813;1347
281.875;1350
281.938;1354
282.000;1350
282.063;1345
282.125;1347
282.188;1342
282.250;1352
282.313;1350
282.375;1345
282.438;1354
282.500;1354
282.563;1352
282.625;1352
282.688;1342
282.750;1354
282.813;1354
282.875;1352
282.938;1350
283.000;1357
283.063;1352
283.125;1352
283.188;1345
283.250;1345
283.313;1354
283.375;1347
283.438;1350
283.500;1357
283.563;1352
283.625;1350
283.688;1352
283.750;1352
283.813;1362
283.875;1354
283.938;1350
284.000;1357
284.063;1357
284.125;1352
284.188;1359
284.250;1345
284.313;1345
284.375;1357
284.438;1352
284.500;1357
284.563;1347
284.625;1342
284.688;1362
284.750;1350
284.813;1354
284.875;1347
284.938;1350
285.000;1350
285.063;1352
285.125;1359
285.188;1350
285.250;1350
285.313;1347
285.375;1345
285.438;1354
285.500;1345
285.563;1345
285.625;1357
285.688;1350
285.750;1342
285.813;1347
285.875;1342
285.938;1345
286.000;1350
286.063;1342
286.125;1340
286.188;1352
286.250;1352
286.313;1350
286.375;1345
286.438;1345
286.500;1345
286.563;1345
286.625;1352
286.688;1345
286.750;1342
286.813;1345
286.875;1352
286.938;1342
287.000;1342
287.063;1335
287.125;1352
287.188;1345
287.250;1345
287.313;1337
287.375;1347
287.438;1342
287.500;1340
287.563;1357
287.625;1352
287.688;1335
287.750;1342
287.813;1350
287.875;1347
287.938;1352
288.000;1345
288.063;1350
288.125;1352
288.188;1342
288.250;1354
288.313;1340
288.375;1342
288.438;1342
288.500;1345
288.563;1345
288.625;1345
288.688;1347
288.750;1340
288.813;1345
288.875;1340
288.938;1350
289.000;1352
289.063;1345
289.125;1347
289.188;1340
289.250;1345
289.313;1347
289.375;1345
289.438;1354
289.500;1347
289.563;1347
289.625;1350
289.688;1347
289.750;1345
289.813;1347
289.875;1340
289.938;1345
290.000;1345
290.063;1345
290.125;1350
290.188;1342
290.250;1340
290.313;1350
290.375;1347
290.438;1342
290.500;1345
290.563;1352
290.625;1340
290.688;1354
290.750;1342
290.813;1350
290.875;1347
290.938;1345
291.000;1345
291.063;1352
291.125;1345
291.188;1350
291.250;1350
291.313;1350
291.375;1352
291.438;1347
291.500;1354
291.563;1352
291.625;1347
291.688;1345
291.750;1350
291.813;1345
291.875;1350
291.938;1347
292.000;1350
292.063;1352
292.125;1337
292.188;1350
292.250;1347
292.313;1352
292.375;1350
292.438;1350
292.500;1354
292.563;1357
292.625;1347
292.688;1347
292.750;1350
292.813;1352
292.875;1354
292.938;1347
293.000;1354
293.063;1364
293.125;1352
293.188;1357
293.250;1347
293.313;1354
293.375;1350
293.438;1352
293.500;1354
293.563;1357
293.625;1350
293.688;1350
293.750;1359
293.813;1357
293.875;1357
293.938;1362
294.000;1352
294.063;1357
294.125;1364
294.188;1357
294.250;1352
294.313;1357
294.375;1354
294.438;1350
294.500;1357
294.563;1354
294.625;1352
294.688;1359
294.750;1364
294.813;1354
294.875;1350
294.938;1347
295.000;1354
295.063;1354
295.125;1354
295.188;1357
295.250;1359
295.313;1362
295.375;1357
295.438;1357
295.500;1362
295.563;1352
295.625;1354
295.688;1350
295.750;1354
295.813;1357
295.875;1354
295.938;1354
296.000;1354
296.063;1364
296.125;1357
296.188;1354
296.250;1359
296.313;1359
296.375;1359
296.438;1352
296.500;1359
296.563;1350
296.625;1352
296.688;1357
296.750;1359
296.813;1352
296.875;1357
296.938;1354
297.000;1364
297.063;1357
297.125;1357
297.188;1354
297.250;1364
297.313;1354
297.375;1352
297.438;1359
297.500;1357
297.563;1352
297.625;1350
297.688;1350
297.750;1357
297.813;1354
297.875;1352
297.938;1354
298.000;1354
298.063;1354
298.125;1352
298.188;1362
298.250;1354
298.313;1357
298.375;1350
298.438;1347
298.500;1362
298.563;1352
298.625;1359
298.688;1354
298.750;1350
298.813;1347
298.875;1357
298.938;1352
299.000;1357
299.063;1359
299.125;1347
299.188;1359
299.250;1352
299.313;1345
299.375;1352
299.438;1357
299.500;1345
299.563;1352
299.625;1352
299.688;1359
299.750;1354
299.813;1354
299.875;1359
299.938;1354
300.000;1352
300.063;1357
300.125;1350
300.188;1364
300.250;1352
300.313;1350
300.375;1357
300.438;1357
300.500;1350
300.563;1350
300.625;1342
300.688;1359
300.750;1354
300.813;1352
300.875;1352
300.938;1347
301.000;1347
301.063;1359
301.125;1352
301.188;1362
301.250;1347
301.313;1357
301.375;1347
301.438;1357
301.500;1340
301.563;1354
301.625;1352
301.688;1350
301.750;1352
301.813;1354
301.875;1345
301.938;1357
302.000;1362
302.063;1354
302.125;1354
302.188;1350
302.250;1352
302.313;1357
302.375;1354
302.438;1352
302.500;1352
302.563;1354
302.625;1362
302.688;1354
302.750;1354
302.813;1354
302.875;1354
302.938;1352
303.000;1362
303.063;1362
303.125;1357
303.188;1354
303.250;1367
303.313;1352
303.375;1357
303.438;1352
303.500;1357
303.563;1362
303.625;1350
303.688;1357
303.750;1354
303.813;1350
303.875;1357
303.938;1359
304.000;1362
304.063;1354
304.125;1352
304.188;1347
304.250;1359
304.313;1359
304.375;1357
304.438;1359
304.500;1354
304.563;1354
304.625;1357
304.688;1354
304.750;1354
304.813;1364
304.875;1364
304.938;1359
305.000;1357
305.063;1354
305.125;1367
305.188;1359
305.250;1364
305.313;1364
305.375;1354
305.438;1359
305.500;1352
305.563;1357
305.625;1357
305.688;1364
305.750;1367
305.813;1362
305.875;1362
305.938;1364
306.000;1359
306.063;1362
306.125;1364
306.188;1364
306.250;1369
306.313;1364
306.375;1364
306.438;1369
306.500;1367
306.563;1359
306.625;1367
306.688;1367
306.750;1367
306.813;1362
306.875;1374
306.938;1364
307.000;1364
307.063;1369
307.125;1364
307.188;1362
307.250;1367
307.313;1367
307.375;1362
307.438;1374
307.500;1364
307.563;1357
307.625;1362
307.688;1367
307.750;1364
307.813;1367
307.875;1364
307.938;1367
308.000;1372
308.063;1367
308.125;1364
308.188;1369
308.250;1369
308.313;1369
308.375;1362
308.438;1357
308.500;1369
308.563;1369
308.625;1359
308.688;1364
308.750;1362
308.813;1369
308.875;1362
308.938;1364
309.000;1376
309.063;1369
309.125;1357
309.188;1362
309.250;1372
309.313;1354
309.375;1364
309.438;1362
309.500;1364
309.563;1372
309.625;1364
309.688;1364
309.750;1372
309.813;1357
309.875;1359
309.938;1369
310.000;1364
310.063;1362
310.125;1367
310.188;1357
310.250;1372
310.313;1369
310.375;1369
310.438;1367
310.500;1359
310.563;1374
310.625;1352
310.688;1357
310.750;1369
310.813;1364
310.875;1376
310.938;1364
311.000;1372
311.063;1352
311.125;1362
311.188;1362
311.250;1364
311.313;1354
311.375;1359
311.438;1364
311.500;1362
311.563;1362
311.625;1364
311.688;1362
311.750;1359
311.813;1367
311.875;1364
311.938;1362
312.000;1359
312.063;1364
312.125;1369
312.188;1359
312.250;1367
312.313;1362
312.375;1369
312.438;1357
312.500;1357
312.563;1362
312.625;1362
312.688;1359
312.750;1354
312.813;1369
312.875;1364
312.938;1364
313.000;1359
313.063;1372
313.125;1367
313.188;1367
313.250;1362
313.313;1359
313.375;1357
313.438;1362
313.500;1369
313.563;1367
313.625;1367
313.688;1362
313.750;1364
313.813;1357
313.875;1359
313.938;1362
314.000;1367
314.063;1359
314.125;1357
314.188;1367
314.250;1357
314.313;1350
314.375;1367
314.438;1362
314.500;1357
314.563;1359
314.625;1362
314.688;1357
314.750;1369
314.813;1362
314.875;1369
314.938;1364
315.000;1369
315.063;1350
315.125;1352
315.188;1362
315.250;1364
315.313;1367
315.375;1364
315.438;1357
315.500;1372
315.563;1364
315.625;1362
315.688;1357
315.750;1362
315.813;1359
315.875;1357
315.938;1364
316.000;1372
316.063;1362
316.125;1367
316.188;1357
316.250;1359
316.313;1374
316.375;1369
316.438;1364
316.500;1359
316.563;1369
316.625;1359
316.688;1362
316.750;1364
316.813;1367
316.875;1362
316.938;1359
317.000;1372
317.063;1369
317.125;1359
317.188;1364
317.250;1362
317.313;1367
317.375;1367
317.438;1367
317.500;1367
317.563;1364
317.625;1369
317.688;1369
317.750;1364
317.813;1362
317.875;1364
317.938;1369
318.000;1367
318.063;1367
318.125;1372
318.188;1376
318.250;1374
318.313;1364
318.375;1372
318.438;1369
318.500;1376
318.563;1362
318.625;1372
318.688;1359
318.750;1372
318.813;1372
318.875;1369
318.938;1369
319.000;1359
319.063;1369
319.125;1369
319.188;1379
319.250;1367
319.313;1374
319.375;1369
319.438;1367
319.500;1372
319.563;1359
319.625;1369
319.688;1381
319.750;1372
319.813;1367
319.875;1367
319.938;1369
320.000;1374
320.063;1367
320.125;1374
320.188;1372
320.250;1362
320.313;1369
320.375;1372
320.438;1367
320.500;1369
320.563;1376
320.625;1372
320.688;1362
320.750;1369
320.813;1372
320.875;1367
320.938;1372
321.000;1372
321.063;1369
321.125;1367
321.188;1362
321.250;1367
321.313;1369
321.375;1364
321.438;1364
321.500;1372
321.563;1364
321.625;1362
321.688;1372
321.750;1369
321.813;1369
321.875;1367
321.938;1372
322.000;1369
322.063;1357
322.125;1364
322.188;1359
322.250;1374
322.313;1359
322.375;1369
322.438;1369
322.500;1359
322.563;1362
322.625;1369
322.688;1372
322.750;1372
322.813;1369
322.875;1374
322.938;1374
323.000;1367
323.063;1359
323.125;1359
323.188;1362
323.250;1364
323.313;1369
323.375;1374
323.438;1372
323.500;1357
323.563;1354
323.625;1364
323.688;1367
323.750;1364
323.813;1364
323.875;1367
323.938;1359
324.000;1372
324.063;1362
324.125;1369
324.188;1362
324.250;1364
324.313;1352
324.375;1367
324.438;1364
324.500;1364
324.563;1362
324.625;1362
324.688;1364
324.750;1362
324.813;1362
324.875;1357
324.938;1362
325.000;1374
325.063;1362
325.125;1357
325.188;1359
325.250;1364
325.313;1362
325.375;1362
325.438;1359
325.500;1364
325.563;1362
325.625;1357
325.688;1352
325.750;1359
325.813;1362
325.875;1367
325.938;1359
326.000;1357
326.063;1367
326.125;1362
326.188;1364
326.250;1362
326.313;1362
326.375;1362
326.438;1357
326.500;1367
326.563;1364
326.625;1352
326.688;1367
326.750;1369
326.813;1362
326.875;1369
326.938;1359
327.000;1362
327.063;1369
327.125;1354
327.188;1359
327.250;1364
327.313;1364
327.375;1369
327.438;1364
327.500;1367
327.563;1367
327.625;1362
327.688;1357
327.750;1357
327.813;1359
327.875;1359
327.938;1364
328.000;1372
328.063;1379
328.125;1364
328.188;1364
328.250;1357
328.313;1367
328.375;1364
328.438;1364
328.500;1364
328.563;1372
328.625;1374
328.688;1362
328.750;1367
328.813;1369
328.875;1364
328.938;1374
329.000;1369
329.063;1364
329.125;1359
329.188;1369
329.250;1369
329.313;1362
329.375;1364
329.438;1369
329.500;1369
329.563;1369
329.625;1359
329.688;1374
329.750;1364
329.813;1367
329.875;1364
329.938;1367
330.000;1369
330.063;1367
330.125;1367
330.188;1367
330.250;1362
330.313;1376
330.375;1367
330.438;1369
330.500;1369
330.563;1374
330.625;1379
330.688;1364
330.750;1372
330.813;1364
330.875;1367
330.938;1372
331.000;1374
331.063;1367
331.125;1367
331.188;1374
331.250;1372
331.313;1367
331.375;1372
331.438;1369
331.500;1372
331.563;1374
331.625;1369
331.688;1374
331.750;1367
331.813;1367
331.875;1372
331.938;1367
332.000;1372
332.063;1372
332.125;1364
332.188;1372
332.250;1367
332.313;1374
332.375;1367
332.438;1369
332.500;1367
332.563;1369
332.625;1372
332.688;1374
332.750;1362
332.813;1374
332.875;1364
332.938;1369
333.000;1364
333.063;1367
333.125;1367
333.188;1376
333.250;1374
333.313;1369
333.375;1362
333.438;1369
333.500;1372
333.563;1374
333.625;1372
333.688;1374
333.750;1364
333.813;1367
333.875;1367
333.938;1367
334.000;1364
334.063;1369
334.125;1354
334.188;1372
334.250;1369
334.313;1369
334.375;1359
334.438;1364
334.500;1362
334.563;1367
334.625;1364
334.688;1367
334.750;1367
334.813;1367
334.875;1364
334.938;1362
335.000;1367
335.063;1362
335.125;1357
335.188;1362
335.250;1362
335.313;1364
335.375;1364
335.438;1367
335.500;1369
335.563;1364
335.625;1359
335.688;1364
335.750;1362
335.813;1367
335.875;1362
335.938;1357
336.000;1364
336.063;1369
336.125;1359
336.188;1354
336.250;1364
336.313;1354
336.375;1354
336.438;1364
336.500;1362
336.563;1362
336.625;1364
336.688;1362
336.750;1372
336.813;1354
336.875;1347
336.938;1362
337.000;1359
337.063;1347
337.125;1364
337.188;1357
337.250;1362
337.313;1357
337.375;1362
337.438;1362
337.500;1359
337.563;1357
337.625;1362
337.688;1362
337.750;1357
337.813;1359
337.875;1357
337.938;1354
338.000;1362
338.063;1362
338.125;1372
338.188;1354
338.250;1357
338.313;1362
338.375;1350
338.438;1357
338.500;1347
338.563;1347
338.625;1364
338.688;1364
338.750;1367
338.813;1357
338.875;1359
338.938;1354
339.000;1359
339.063;1352
339.125;1364
339.188;1354
339.250;1362
339.313;1352
339.375;1362
339.438;1362
339.500;1357
339.563;1359
339.625;1367
339.688;1350
339.750;1359
339.813;1369
339.875;1359
339.938;1367
340.000;1345
340.063;1364
340.125;1362
340.188;1359
340.250;1369
340.313;1357
340.375;1359
340.438;1357
340.500;1364
340.563;1357
340.625;1362
340.688;1362
340.750;1352
340.813;1367
340.875;1364
340.938;1357
341.000;1364
341.063;1374
341.125;1359
341.188;1362
341.250;1367
341.313;1352
341.375;1357
341.438;1362
341.500;1352
341.563;1357
341.625;1367
341.688;1359
341.750;1367
341.813;1359
341.875;1367
341.938;1357
342.000;1354
342.063;1354
342.125;1364
342.188;1352
342.250;1374
342.313;1364
342.375;1362
342.438;1364
342.500;1364
342.563;1372
342.625;1367
342.688;1364
342.750;1364
342.813;1359
342.875;1364
342.938;1359
343.000;1359
343.063;1369
343.125;1364
343.188;1367
343.250;1369
343.313;1379
343.375;1364
343.438;1364
343.500;1362
343.563;1367
343.625;1362
343.688;1367
343.750;1367
343.813;1367
343.875;1359
343.938;1369
344.000;1374
344.063;1359
344.125;1367
344.188;1369
344.250;1359
344.313;1359
344.375;1374
344.438;1357
344.500;1367
344.563;1372
344.625;1372
344.688;1362
344.750;1364
344.813;1364
344.875;1369
344.938;1364
345.000;1364
345.063;1369
345.125;1362
345.188;1367
345.250;1374
345.313;1354
345.375;1359
345.438;1369
345.500;1362
345.563;1364
345.625;1367
345.688;1364
345.750;1364
345.813;1362
345.875;1367
345.938;1364
346.000;1362
346.063;1376
346.125;1367
346.188;1364
346.250;1367
346.313;1369
346.375;1367
346.438;1357
346.500;1362
346.563;1372
346.625;1362
346.688;1369
346.750;1372
346.813;1374
346.875;1354
346.938;1364
347.000;1364
347.063;1359
347.125;1372
347.188;1367
347.250;1369
347.313;1372
347.375;1367
347.438;1369
347.500;1364
347.563;1364
347.625;1359
347.688;1364
347.750;1369
347.813;1362
347.875;1357
347.938;1362
348.000;1362
348.063;1357
348.125;1359
348.188;1367
348.250;1357
348.313;1367
348.375;1367
348.438;1357
348.500;1357
348.563;1350
348.625;1369
348.688;1367
348.750;1359
348.813;1364
348.875;1352
348.938;1362
349.000;1362
349.063;1354
349.125;1367
349.188;1362
349.250;1359
349.313;1352
349.375;1364
349.438;1364
349.500;1362
349.563;1364
349.625;1345
349.688;1359
349.750;1359
349.813;1364
349.875;1367
349.938;1352
350.000;1367
350.063;1379
350.125;1396
350.188;1374
350.250;1386
350.313;1369
350.375;1362
350.438;1359
350.500;1359
350.563;1354
350.625;1352
350.688;1362
350.750;1357
350.813;1352
350.875;1357
350.938;1357
351.000;1359
351.063;1362
351.125;1364
351.188;1362
351.250;1352
351.313;1352
351.375;1357
351.438;1354
351.500;1364
351.563;1364
351.625;1367
351.688;1354
351.750;1359
351.813;1352
351.875;1350
351.938;1367
352.000;1359
352.063;1369
352.125;1359
352.188;1369
352.250;1367
352.313;1364
352.375;1357
352.438;1357
352.500;1357
352.563;1359
352.625;1372
352.688;1372
352.750;1359
352.813;1359
352.875;1357
352.938;1364
353.000;1357
353.063;1362
353.125;1359
353.188;1367
353.250;1364
353.313;1372
353.375;1367
353.438;1367
353.500;1357
353.563;1362
353.625;1359
353.688;1364
353.750;1362
353.813;1367
353.875;1364
353.938;1367
354.000;1362
354.063;1364
354.125;1374
354.188;1367
354.250;1364
354.313;1369
354.375;1362
354.438;1367
354.500;1369
354.563;1367
354.625;1364
354.688;1367
354.750;1367
354.813;1364
354.875;1362
354.938;1372
355.000;1367
355.063;1369
355.125;1369
355.188;1367
355.250;1362
355.313;1367
355.375;1364
355.438;1369
355.500;1367
355.563;1364
355.625;1364
355.688;1362
355.750;1372
355.813;1362
355.875;1369
355.938;1364
356.000;1372
356.063;1362
356.125;1367
356.188;1367
356.250;1367
356.313;1367
356.375;1372
356.438;1367
356.500;1364
356.563;1367
356.625;1376
356.688;1367
356.750;1367
356.813;1369
356.875;1364
356.938;1369
357.000;1372
357.063;1359
357.125;1369
357.188;1367
357.250;1372
357.313;1364
357.375;1359
357.438;1362
357.500;1367
357.563;1364
357.625;1376
357.688;1362
357.750;1372
357.813;1359
357.875;1362
357.938;1369
358.000;1367
358.063;1364
358.125;1372
358.188;1364
358.250;1369
358.313;1367
358.375;1372
358.438;1369
358.500;1369
358.563;1364
358.625;1362
358.688;1364
358.750;1357
358.813;1352
358.875;1362
358.938;1367
359.000;1369
359.063;1357
359.125;1367
359.188;1362
359.250;1367
359.313;1367
359.375;1369
359.438;1362
359.500;1364
359.563;1357
359.625;1359
359.688;1364
359.750;1367
359.813;1362
359.875;1359
359.938;1357
360.000;1362
360.063;1354
360.125;1367
360.188;1369
360.250;1362
360.313;1364
360.375;1369
360.438;1364
360.500;1357
360.563;1357
360.625;1359
360.688;1352
360.750;1359
360.813;1359
360.875;1364
360.938;1362
361.000;1352
361.063;1352
361.125;1359
361.188;1352
361.250;1352
361.313;1352
361.375;1354
361.438;1352
361.500;1364
361.563;1362
361.625;1362
361.688;1359
361.750;1367
361.813;1362
361.875;1364
361.938;1357
362.000;1357
362.063;1357
362.125;1359
362.188;1350
362.250;1359
362.313;1362
362.375;1347
362.438;1352
362.500;1357
362.563;1357
362.625;1357
362.688;1367
362.750;1359
362.813;1354
362.875;1359
362.938;1352
363.000;1357
363.063;1357
363.125;1359
363.188;1350
363.250;1359
363.313;1362
363.375;1354
363.438;1362
363.500;1359
363.563;1359
363.625;1354
363.688;1359
363.750;1357
363.813;1354
363.875;1364
363.938;1350
364.000;1359
364.063;1354
364.125;1357
364.188;1359
364.250;1357
364.313;1357
364.375;1362
364.438;1362
364.500;1362
364.563;1357
364.625;1357
364.688;1362
364.750;1359
364.813;1354
364.875;1364
364.938;1362
365.000;1372
365.063;1367
365.125;1357
365.188;1362
365.250;1367
365.313;1357
365.375;1362
365.438;1364
365.500;1367
365.563;1354
365.625;1369
365.688;1359
365.750;1364
365.813;1357
365.875;1362
365.938;1359
366.000;1357
366.063;1364
366.125;1372
366.188;1369
366.250;1357
366.313;1362
366.375;1367
366.438;1367
366.500;1364
366.563;1367
366.625;1364
366.688;1362
366.750;1357
366.813;1359
366.875;1369
366.938;1357
367.000;1369
367.063;1367
367.125;1362
367.188;1369
367.250;1367
367.313;1374
367.375;1357
367.438;1367
367.500;1364
367.563;1367
367.625;1364
367.688;1359
367.750;1367
367.813;1376
367.875;1364
367.938;1362
368.000;1362
368.063;1364
368.125;1359
368.188;1359
368.250;1359
368.313;1369
368.375;1362
368.438;1367
368.500;1369
368.563;1364
368.625;1364
368.688;1364
368.750;1359
368.813;1367
368.875;1364
368.938;1359
369.000;1374
369.063;1364
369.125;1364
369.188;1372
369.250;1372
369.313;1359
369.375;1357
369.438;1367
369.500;1369
369.563;1359
369.625;1369
369.688;1372
369.750;1354
369.813;1362
369.875;1369
369.938;1362
370.000;1362
370.063;1367
370.125;1362
370.188;1359
370.250;1359
370.313;1369
370.375;1357
370.438;1369
370.500;1362
370.563;1359
370.625;1367
370.688;1362
370.750;1364
370.813;1359
370.875;1359
370.938;1362
371.000;1357
371.063;1354
371.125;1364
371.188;1369
371.250;1369
371.313;1364
371.375;1369
371.438;1367
371.500;1362
371.563;1352
371.625;1364
371.688;1359
371.750;1367
371.813;1362
371.875;1369
371.938;1364
372.000;1362
372.063;1354
372.125;1367
372.188;1357
372.250;1362
372.313;1354
372.375;1357
372.438;1357
372.500;1354
372.563;1352
372.625;1352
372.688;1347
372.750;1357
372.813;1345
372.875;1359
372.938;1354
373.000;1350
373.063;1357
373.125;1357
373.188;1350
373.250;1359
373.313;1357
373.375;1354
373.438;1357
373.500;1345
373.563;1352
373.625;1352
373.688;1357
373.750;1352
373.813;1345
373.875;1354
373.938;1359
374.000;1347
374.063;1357
374.125;1354
374.188;1352
374.250;1354
374.313;1350
374.375;1354
374.438;1352
374.500;1354
374.563;1352
374.625;1352
374.688;1354
374.750;1354
374.813;1347
374.875;1354
374.938;1354
375.000;1350
375.063;1347
375.125;1347
375.188;1345
375.250;1357
375.313;1359
375.375;1352
375.438;1350
375.500;1350
375.563;1347
375.625;1357
375.688;1354
375.750;1354
375.813;1352
375.875;1359
375.938;1354
376.000;1350
376.063;1359
376.125;1359
376.188;1350
376.250;1352
376.313;1347
376.375;1362
376.438;1352
376.500;1352
376.563;1359
376.625;1359
376.688;1364
376.750;1347
376.813;1364
376.875;1357
376.938;1347
377.000;1357
377.063;1359
377.125;1354
377.188;1367
377.250;1359
377.313;1362
377.375;1352
377.438;1345
377.500;1354
377.563;1354
377.625;1357
377.688;1364
377.750;1354
377.813;1357
377.875;1354
377.938;1362
378.000;1364
378.063;1362
378.125;1354
378.188;1364
378.250;1357
378.313;1354
378.375;1364
378.438;1352
378.500;1354
378.563;1354
378.625;1357
378.688;1357
378.750;1357
378.813;1362
378.875;1362
378.938;1364
379.000;1357
379.063;1354
379.125;1372
379.188;1362
379.250;1362
379.313;1367
379.375;1357
379.438;1359
379.500;1357
379.563;1367
379.625;1357
379.688;1359
379.750;1367
379.813;1374
379.875;1364
379.938;1359
380.000;1362
380.063;1357
380.125;1372
380.188;1357
380.250;1359
380.313;1367
380.375;1364
380.438;1357
380.500;1364
380.563;1364
380.625;1362
380.688;1357
380.750;1364
380.813;1362
380.875;1362
380.938;1359
381.000;1367
381.063;1372
381.125;1362
381.188;1367
381.250;1359
381.313;1362
381.375;1364
381.438;1362
381.500;1369
381.563;1374
381.625;1364
381.688;1364
381.750;1367
381.813;1362
381.875;1372
381.938;1359
382.000;1362
382.063;1367
382.125;1367
382.188;1352
382.250;1359
382.313;1357
382.375;1357
382.438;1354
382.500;1354
382.563;1352
382.625;1364
382.688;1359
382.750;1357
382.813;1357
382.875;1354
382.938;1362
383.000;1372
383.063;1362
383.125;1359
383.188;1350
383.250;1362
383.313;1357
383.375;1362
383.438;1354
383.500;1362
383.563;1362
383.625;1359
383.688;1357
383.750;1352
383.813;1359
383.875;1369
383.938;1364
384.000;1359
384.063;1350
384.125;1364
384.188;1347
384.250;1359
384.313;1354
384.375;1357
384.438;1345
384.500;1359
384.563;1362
384.625;1354
384.688;1352
384.750;1362
384.813;1359
384.875;1357
384.938;1352
385.000;1354
385.063;1352
385.125;1350
385.188;1359
385.250;1362
385.313;1350
385.375;1354
385.438;1354
385.500;1352
385.563;1345
385.625;1354
385.688;1350
385.750;1357
385.813;1347
385.875;1354
385.938;1357
386.000;1354
386.063;1347
386.125;1345
386.188;1357
386.250;1350
386.313;1340
386.375;1354
386.438;1359
386.500;1347
386.563;1359
386.625;1352
386.688;1362
386.750;1350
386.813;1354
386.875;1347
386.938;1350
387.000;1350
387.063;1357
387.125;1352
387.188;1364
387.250;1352
387.313;1342
387.375;1347
387.438;1350
387.500;1354
387.563;1357
387.625;1359
387.688;1347
387.750;1354
387.813;1359
387.875;1352
387.938;1354
388.000;1347
388.063;1352
388.125;1362
388.188;1340
388.250;1350
388.313;1347
388.375;1359
388.438;1357
388.500;1350
388.563;1350
388.625;1347
388.688;1347
388.750;1352
388.813;1357
388.875;1350
388.938;1354
389.000;1352
389.063;1354
389.125;1354
389.188;1352
389.250;1354
389.313;1359
389.375;1357
389.438;1342
389.500;1364
389.563;1357
389.625;1362
389.688;1362
389.750;1364
389.813;1362
389.875;1352
389.938;1362
390.000;1352
390.063;1357
390.125;1362
390.188;1362
390.250;1354
390.313;1357
390.375;1367
390.438;1364
390.500;1357
390.563;1359
390.625;1364
390.688;1362
390.750;1354
390.813;1362
390.875;1354
390.938;1357
391.000;1362
391.063;1345
391.125;1362
391.188;1362
391.250;1354
391.313;1357
391.375;1354
391.438;1359
391.500;1357
391.563;1362
391.625;1354
391.688;1359
391.750;1364
391.813;1359
391.875;1359
391.938;1362
392.000;1357
392.063;1362
392.125;1345
392.188;1364
392.250;1364
392.313;1364
392.375;1372
392.438;1359
392.500;1357
392.563;1362
392.625;1369
392.688;1364
392.750;1369
392.813;1357
392.875;1362
392.938;1354
393.000;1354
393.063;1357
393.125;1369
393.188;1359
393.250;1362
393.313;1362
393.375;1350
393.438;1354
393.500;1362
393.563;1352
393.625;1357
393.688;1364
393.750;1362
393.813;1362
393.875;1364
393.938;1354
394.000;1357
394.063;1359
394.125;1357
394.188;1352
394.250;1357
394.313;1367
394.375;1357
394.438;1359
394.500;1357
394.563;1367
394.625;1354
394.688;1354
394.750;1352
394.813;1362
394.875;1359
394.938;1359
395.000;1359
395.063;1357
395.125;1362
395.188;1367
395.250;1362
395.313;1372
395.375;1357
395.438;1369
395.500;1350
395.563;1357
395.625;1364
395.688;1357
395.750;1362
395.813;1357
395.875;1362
395.938;1350
396.000;1359
396.063;1350
396.125;1352
396.188;1345
396.250;1352
396.313;1354
396.375;1362
396.438;1352
396.500;1354
396.563;1357
396.625;1354
396.688;1359
396.750;1352
396.813;1347
396.875;1362
396.938;1359
397.000;1359
397.063;1357
397.125;1345
397.188;1364
397.250;1364
397.313;1352
397.375;1352
397.438;1352
397.500;1362
397.563;1340
397.625;1345
397.688;1354
397.750;1354
397.813;1354
397.875;1352
397.938;1345
398.000;1342
398.063;1350
398.125;1350
398.188;1340
398.250;1342
398.313;1354
398.375;1347
398.438;1347
398.500;1354
398.563;1357
398.625;1359
398.688;1347
398.750;1350
398.813;1345
398.875;1354
398.938;1352
399.000;1347
399.063;1354
399.125;1345
399.188;1350
399.250;1350
399.313;1352
399.375;1350
399.438;1362
399.500;1354
399.563;1354
399.625;1352
399.688;1350
399.750;1357
399.813;1359
399.875;1354
399.938;1347
400.000;1359
400.063;1359
400.125;1369
400.188;1347
400.250;1364
400.313;1359
400.375;1345
400.438;1354
400.500;1352
400.563;1350
400.625;1352
400.688;1345
400.750;1359
400.813;1345
400.875;1359
400.938;1352
401.000;1337
401.063;1350
401.125;1347
401.188;1350
401.250;1352
401.313;1347
401.375;1352
401.438;1347
401.500;1350
401.563;1340
401.625;1354
401.688;1350
401.750;1357
401.813;1359
401.875;1345
401.938;1354
402.000;1359
402.063;1359
402.125;1354
402.188;1347
402.250;1362
402.313;1352
402.375;1352
402.438;1350
402.500;1347
402.563;1364
402.625;1354
402.688;1350
402.750;1362
402.813;1354
402.875;1359
402.938;1359
403.000;1354
403.063;1354
403.125;1357
403.188;1369
403.250;1364
403.313;1357
403.375;1359
403.438;1359
403.500;1359
403.563;1364
403.625;1362
403.688;1372
403.750;1354
403.813;1357
403.875;1354
403.938;1362
404.000;1357
404.063;1364
404.125;1359
404.188;1357
404.250;1352
404.313;1359
404.375;1362
404.438;1357
404.500;1357
404.563;1367
404.625;1357
404.688;1364
404.750;1364
404.813;1359
404.875;1369
404.938;1359
405.000;1367
405.063;1362
405.125;1367
405.188;1359
405.250;1364
405.313;1362
405.375;1364
405.438;1359
405.500;1359
405.563;1362
405.625;1364
405.688;1369
405.750;1367
405.813;1359
405.875;1362
405.938;1369
406.000;1357
406.063;1362
406.125;1364
406.188;1364
406.250;1350
406.313;1357
406.375;1357
406.438;1362
406.500;1357
406.563;1352
406.625;1369
406.688;1359
406.750;1362
406.813;1367
406.875;1364
406.938;1357
407.000;1364
407.063;1364
407.125;1362
407.188;1364
407.250;1354
407.313;1357
407.375;1357
407.438;1359
407.500;1367
407.563;1359
407.625;1354
407.688;1364
407.750;1352
407.813;1357
407.875;1357
407.938;1354
408.000;1354
408.063;1357
408.125;1357
408.188;1357
408.250;1354
408.313;1357
408.375;1350
408.438;1354
408.500;1347
408.563;1357
408.625;1357
408.688;1350
408.750;1354
408.813;1350
408.875;1350
408.938;1347
409.000;1357
409.063;1354
409.125;1352
409.188;1357
409.250;1350
409.313;1350
409.375;1359
409.438;1357
409.500;1352
409.563;1354
409.625;1352
409.688;1359
409.750;1352
409.813;1350
409.875;1347
409.938;1345
410.000;1357
410.063;1359
410.125;1347
410.188;1350
410.250;1350
410.313;1354
410.375;1352
410.438;1357
410.500;1350
410.563;1347
410.625;1354
410.688;1357
410.750;1350
410.813;1345
410.875;1350
410.938;1347
411.000;1350
411.063;1345
411.125;1354
411.188;1345
411.250;1347
411.313;1352
411.375;1347
411.438;1342
411.500;1357
411.563;1345
411.625;1354
411.688;1352
411.750;1354
411.813;1352
411.875;1347
411.938;1359
412.000;1345
412.063;1350
412.125;1357
412.188;1345
412.250;1354
412.313;1352
412.375;1354
412.438;1350
412.500;1345
412.563;1354
412.625;1354
412.688;1352
412.750;1354
412.813;1350
412.875;1345
412.938;1350
413.000;1354
413.063;1352
413.125;1340
413.188;1354
413.250;1352
413.313;1352
413.375;1350
413.438;1345
413.500;1354
413.563;1345
413.625;1350
413.688;1347
413.750;1337
413.813;1354
413.875;1347
413.938;1345
414.000;1347
414.063;1350
414.125;1352
414.188;1352
414.250;1354
414.313;1350
414.375;1347
414.438;1347
414.500;1347
414.563;1357
414.625;1352
414.688;1352
414.750;1350
414.813;1357
414.875;1354
414.938;1350
415.000;1352
415.063;1364
415.125;1357
415.188;1352
415.250;1357
415.313;1357
415.375;1354
415.438;1359
415.500;1352
415.563;1345
415.625;1362
415.688;1357
415.750;1350
415.813;1352
415.875;1359
415.938;1362
416.000;1347
416.063;1350
416.125;1347
416.188;1364
416.250;1362
416.313;1352
416.375;1350
416.438;1350
416.500;1359
416.563;1357
416.625;1359
416.688;1364
416.750;1362
416.813;1359
416.875;1354
416.938;1352
417.000;1354
417.063;1345
417.125;1357
417.188;1352
417.250;1372
417.313;1350
417.375;1352
417.438;1357
417.500;1352
417.563;1342
417.625;1357
417.688;1359
417.750;1364
417.813;1357
417.875;1354
417.938;1345
418.000;1354
418.063;1345
418.125;1347
418.188;1354
418.250;1347
418.313;1345
418.375;1354
418.438;1354
418.500;1357
418.563;1362
418.625;1352
418.688;1354
418.750;1350
418.813;1354
418.875;1359
418.938;1354
419.000;1357
419.063;1350
419.125;1350
419.188;1347
419.250;1347
419.313;1359
419.375;1350
419.438;1352
419.500;1354
419.563;1350
419.625;1350
419.688;1350
419.750;1352
419.813;1350
419.875;1354
419.938;1347
420.000;1345
420.063;1354
420.125;1352
420.188;1354
420.250;1352
420.313;1357
420.375;1347
420.438;1342
420.500;1335
420.563;1354
420.625;1345
420.688;1345
420.750;1347
420.813;1347
420.875;1347
420.938;1342
421.000;1350
421.063;1350
421.125;1335
421.188;1345
421.250;1352
421.313;1352
421.375;1347
421.438;1347
421.500;1345
421.563;1345
421.625;1345
421.688;1357
421.750;1347
421.813;1342
421.875;1345
421.938;1342
422.000;1340
422.063;1345
422.125;1342
422.188;1345
422.250;1335
422.313;1345
422.375;1340
422.438;1342
422.500;1340
422.563;1328
422.625;1335
422.688;1340
422.750;1342
422.813;1345
422.875;1335
422.938;1342
423.000;1340
423.063;1333
423.125;1345
423.188;1345
423.250;1345
423.313;1337
423.375;1345
423.438;1337
423.500;1342
423.563;1340
423.625;1340
423.688;1350
423.750;1342
423.813;1333
423.875;1340
423.938;1340
424.000;1333
424.063;1345
424.125;1345
424.188;1337
424.250;1345
424.313;1337
424.375;1337
424.438;1340
424.500;1340
424.563;1328
424.625;1350
424.688;1337
424.750;1345
424.813;1342
424.875;1337
424.938;1342
425.000;1340
425.063;1347
425.125;1340
425.188;1342
425.250;1333
425.313;1340
425.375;1345
425.438;1342
425.500;1347
425.563;1335
425.625;1337
425.688;1342
425.750;1333
425.813;1345
425.875;1345
425.938;1340
426.000;1340
426.063;1345
426.125;1340
426.188;1350
426.250;1342
426.313;1345
426.375;1350
426.438;1335
426.500;1337
426.563;1342
426.625;1347
426.688;1345
426.750;1345
426.813;1337
426.875;1342
426.938;1335
427.000;1337
427.063;1345
427.125;1342
427.188;1340
427.250;1350
427.313;1340
427.375;1354
427.438;1347
427.500;1340
427.563;1342
427.625;1340
427.688;1337
427.750;1347
427.813;1352
427.875;1350
427.938;1345
428.000;1342
428.063;1347
428.125;1345
428.188;1350
428.250;1347
428.313;1347
428.375;1340
428.438;1342
428.500;1354
428.563;1340
428.625;1342
428.688;1347
428.750;1335
428.813;1342
428.875;1345
428.938;1337
429.000;1347
429.063;1350
429.125;1347
429.188;1345
429.250;1350
429.313;1345
429.375;1350
429.438;1359
429.500;1347
429.563;1350
429.625;1342
429.688;1350
429.750;1347
429.813;1350
429.875;1335
429.938;1342
430.000;1333
430.063;1345
430.125;1345
430.188;1345
430.250;1340
430.313;1342
430.375;1350
430.438;1347
430.500;1347
430.563;1345
430.625;1340
430.688;1342
430.750;1345
430.813;1350
430.875;1340
430.938;1347
431.000;1333
431.063;1342
431.125;1342
431.188;1335
431.250;1342
431.313;1335
431.375;1337
431.438;1337
431.500;1345
431.563;1350
431.625;1342
431.688;1328
431.750;1337
431.813;1350
431.875;1345
431.938;1337
432.000;1337
432.063;1335
432.125;1342
432.188;1337
432.250;1335
432.313;1340
432.375;1337
432.438;1342
432.500;1335
432.563;1340
432.625;1337
432.688;1335
432.750;1340
432.813;1337
432.875;1342
432.938;1340
433.000;1330
433.063;1320
433.125;1335
433.188;1337
433.250;1330
433.313;1335
433.375;1337
433.438;1335
433.500;1335
433.563;1333
433.625;1330
433.688;1333
433.750;1333
433.813;1335
433.875;1325
433.938;1330
434.000;1328
434.063;1328
434.125;1335
434.188;1333
434.250;1335
434.313;1330
434.375;1325
434.438;1328
434.500;1330
434.563;1328
434.625;1335
434.688;1330
434.750;1333
434.813;1320
434.875;1320
434.938;1328
435.000;1323
435.063;1333
435.125;1330
435.188;1328
435.250;1337
435.313;1337
435.375;1330
435.438;1333
435.500;1328
435.563;1330
435.625;1320
435.688;1335
435.750;1330
435.813;1333
435.875;1330
435.938;1320
436.000;1318
436.063;1330
436.125;1330
436.188;1325
436.250;1325
436.313;1328
436.375;1333
436.438;1328
436.500;1325
436.563;1325
436.625;1333
436.688;1342
436.750;1330
436.813;1333
436.875;1328
436.938;1333
437.000;1335
437.063;1333
437.125;1337
437.188;1325
437.250;1325
437.313;1328
437.375;1333
437.438;1328
437.500;1337
437.563;1335
437.625;1328
437.688;1337
437.750;1333
437.813;1328
437.875;1340
437.938;1330
438.000;1340
438.063;1337
438.125;1333
438.188;1340
438.250;1337
438.313;1342
438.375;1342
438.438;1347
438.500;1330
438.563;1335
438.625;1337
438.688;1328
438.750;1335
438.813;1328
438.875;1342
438.938;1325
439.000;1335
439.063;1342
439.125;1340
439.188;1337
439.250;1335
439.313;1350
439.375;1337
439.438;1335
439.500;1345
439.563;1342
439.625;1340
439.688;1340
439.750;1342
439.813;1337
439.875;1335
439.938;1347
440.000;1335
440.063;1345
440.125;1350
440.188;1333
440.250;1333
440.313;1335
440.375;1342
440.438;1340
440.500;1335
440.563;1342
440.625;1345
440.688;1337
440.750;1335
440.813;1342
440.875;1335
440.938;1347
441.000;1333
441.063;1342
441.125;1345
441.188;1340
441.250;1340
441.313;1333
441.375;1345
441.438;1340
441.500;1345
441.563;1342
441.625;1350
441.688;1347
441.750;1335
441.813;1345
441.875;1342
441.938;1335
442.000;1340
442.063;1340
442.125;1337
442.188;1325
442.250;1335
442.313;1345
442.375;1335
442.438;1340
442.500;1335
442.563;1340
442.625;1333
442.688;1345
442.750;1333
442.813;1350
442.875;1333
442.938;1337
443.000;1345
443.063;1335
443.125;1330
443.188;1337
443.250;1335
443.313;1337
443.375;1333
443.438;1340
443.500;1337
443.563;1340
443.625;1337
443.688;1335
443.750;1335
443.813;1345
443.875;1333
443.938;1333
444.000;1337
444.063;1328
444.125;1342
444.188;1340
444.250;1337
444.313;1340
444.375;1340
444.438;1333
444.500;1337
444.563;1330
444.625;1328
444.688;1340
444.750;1340
444.813;1337
444.875;1333
444.938;1335
445.000;1337
445.063;1340
445.125;1325
445.188;1335
445.250;1330
445.313;1337
445.375;1330
445.438;1333
445.500;1333
445.563;1337
445.625;1325
445.688;1325
445.750;1325
445.813;1337
445.875;1325
445.938;1325
446.000;1328
446.063;1325
446.125;1333
446.188;1323
446.250;1330
446.313;1335
446.375;1333
446.438;1328
446.500;1330
446.563;1323
446.625;1320
446.688;1325
446.750;1328
446.813;1330
446.875;1323
446.938;1325
447.000;1325
447.063;1328
447.125;1335
447.188;1325
447.250;1325
447.313;1323
447.375;1330
447.438;1328
447.500;1328
447.563;1323
447.625;1333
447.688;1320
447.750;1330
447.813;1323
447.875;1328
447.938;1325
448.000;1323
448.063;1325
448.125;1323
448.188;1330
448.250;1328
448.313;1337
448.375;1325
448.438;1330
448.500;1328
448.563;1325
448.625;1328
448.688;1333
448.750;1328
448.813;1325
448.875;1328
448.938;1328
449.000;1320
449.063;1330
449.125;1325
449.188;1318
449.250;1330
449.313;1323
449.375;1323
449.438;1325
449.500;1325
449.563;1328
449.625;1323
449.688;1323
449.750;1330
449.813;1320
449.875;1325
449.938;1335
450.000;1333
450.063;1342
450.125;1430
450.188;1433
450.250;1413
450.313;1413
450.375;1406
450.438;1401
450.500;1413
450.563;1398
450.625;1406
450.688;1413
450.750;1440
450.813;1442
450.875;1445
450.938;1442
451.000;1447
451.063;1445
451.125;1437
451.188;1442
451.250;1445
451.313;1440
451.375;1447
451.438;1440
451.500;1445
451.563;1445
451.625;1445
451.688;1442
451.750;1445
451.813;1450
451.875;1442
451.938;1445
452.000;1452
452.063;1445
452.125;1445
452.188;1445
452.250;1450
452.313;1433
452.375;1437
452.438;1452
452.500;1440
452.563;1457
452.625;1450
452.688;1450
452.750;1437
452.813;1442
452.875;1450
452.938;1450
453.000;1447
453.063;1450
453.125;1435
453.188;1447
453.250;1447
453.313;1442
453.375;1445
453.438;1440
453.500;1442
453.563;1440
453.625;1442
453.688;1447
453.750;1437
453.813;1442
453.875;1455
453.938;1442
454.000;1450
454.063;1447
454.125;1442
454.188;1437
454.250;1445
454.313;1440
454.375;1430
454.438;1455
454.500;1445
454.563;1445
454.625;1440
454.688;1440
454.750;1437
454.813;1437
454.875;1437
454.938;1442
455.000;1450
455.063;1440
455.125;1435
455.188;1433
455.250;1442
455.313;1433
455.375;1437
455.438;1445
455.500;1435
455.563;1440
455.625;1435
455.688;1423
455.750;1437
455.813;1440
455.875;1433
455.938;1437
456.000;1433
456.063;1433
456.125;1437
456.188;1433
456.250;1430
456.313;1435
456.375;1440
456.438;1430
456.500;1437
456.563;1425
456.625;1428
456.688;1433
456.750;1440
456.813;1433
456.875;1433
456.938;1433
457.000;1433
457.063;1433
457.125;1430
457.188;1433
457.250;1433
457.313;1430
457.375;1425
457.438;1423
457.500;1425
457.563;1433
457.625;1435
457.688;1433
457.750;1430
457.813;1425
457.875;1425
457.938;1425
458.000;1430
458.063;1425
458.125;1428
458.188;1430
458.250;1423
458.313;1425
458.375;1440
458.438;1428
458.500;1420
458.563;1435
458.625;1420
458.688;1425
458.750;1435
458.813;1420
458.875;1428
458.938;1430
459.000;1423
459.063;1420
459.125;1425
459.188;1423
459.250;1428
459.313;1418
459.375;1428
459.438;1430
459.500;1416
459.563;1423
459.625;1413
459.688;1428
459.750;1425
459.813;1423
459.875;1435
459.938;1423
460.000;1423
460.063;1430
460.125;1425
460.188;1418
460.250;1416
460.313;1420
460.375;1420
460.438;1418
460.500;1425
460.563;1418
460.625;1416
460.688;1413
460.750;1408
460.813;1423
460.875;1418
460.938;1430
461.000;1423
461.063;1423
461.125;1420
461.188;1416
461.250;1428
461.313;1416
461.375;1420
461.438;1428
461.500;1425
461.563;1418
461.625;1425
461.688;1420
461.750;1418
461.813;1418
461.875;1428
461.938;1425
462.000;1408
462.063;1425
462.125;1423
462.188;1413
462.250;1425
462.313;1416
462.375;1430
462.438;1418
462.500;1418
462.563;1416
462.625;1423
462.688;1418
462.750;1420
462.813;1425
462.875;1420
462.938;1425
463.000;1425
463.063;1418
463.125;1418
463.188;1423
463.250;1416
463.313;1423
463.375;1425
463.438;1423
463.500;1433
463.563;1428
463.625;1418
463.688;1430
463.750;1428
463.813;1423
463.875;1413
463.938;1428
464.000;1430
464.063;1418
464.125;1423
464.188;1428
464.250;1428
464.313;1418
464.375;1425
464.438;1420
464.500;1433
464.563;1420
464.625;1433
464.688;1425
464.750;1433
464.813;1425
464.875;1435
464.938;1433
465.000;1425
465.063;1428
465.125;1428
465.188;1423
465.250;1440
465.313;1425
465.375;1423
465.438;1430
465.500;1430
465.563;1430
465.625;1425
465.688;1437
465.750;1420
465.813;1423
465.875;1425
465.938;1428
466.000;1423
466.063;1430
466.125;1425
466.188;1428
466.250;1423
466.313;1420
466.375;1413
466.438;1423
466.500;1425
466.563;1428
466.625;1435
466.688;1423
466.750;1423
466.813;1420
466.875;1425
466.938;1428
467.000;1425
467.063;1425
467.125;1423
467.188;1425
467.250;1418
467.313;1413
467.375;1420
467.438;1430
467.500;1420
467.563;1423
467.625;1416
467.688;1423
467.750;1413
467.813;1418
467.875;1425
467.938;1428
468.000;1420
468.063;1423
468.125;1418
468.188;1420
468.250;1420
468.313;1416
468.375;1420
468.438;1411
468.500;1408
468.563;1408
468.625;1420
468.688;1423
468.750;1411
468.813;1413
468.875;1418
468.938;1416
469.000;1420
469.063;1418
469.125;1416
469.188;1408
469.250;1418
469.313;1428
469.375;1423
469.438;1413
469.500;1411
469.563;1416
469.625;1418
469.688;1411
469.750;1413
469.813;1413
469.875;1418
469.938;1413
470.000;1416
470.063;1406
470.125;1420
470.188;1418
470.250;1418
470.313;1411
470.375;1418
470.438;1418
470.500;1416
470.563;1418
470.625;1411
470.688;1418
470.750;1411
470.813;1413
470.875;1406
470.938;1413
471.000;1413
471.063;1408
471.125;1416
471.188;1411
471.250;1413
471.313;1403
471.375;1416
471.438;1418
471.500;1401
471.563;1403
471.625;1411
471.688;1408
471.750;1406
471.813;1418
471.875;1411
471.938;1408
472.000;1418
472.063;1408
472.125;1418
472.188;1413
472.250;1408
472.313;1411
472.375;1408
472.438;1411
472.500;1408
472.563;1406
472.625;1413
472.688;1408
472.750;1406
472.813;1416
472.875;1406
472.938;1411
473.000;1406
473.063;1423
473.125;1413
473.188;1418
473.250;1411
473.313;1406
473.375;1413
473.438;1403
473.500;1416
473.563;1413
473.625;1408
473.688;1413
473.750;1413
473.813;1411
473.875;1413
473.938;1416
474.000;1406
474.063;1413
474.125;1413
474.188;1411
474.250;1408
474.313;1408
474.375;1411
474.438;1411
474.500;1411
474.563;1418
474.625;1413
474.688;1413
474.750;1413
474.813;1416
474.875;1413
474.938;1420
475.000;1423
475.063;1408
475.125;1425
475.188;1411
475.250;1423
475.313;1411
475.375;1416
475.438;1408
475.500;1413
475.563;1420
475.625;1418
475.688;1418
475.750;1416
475.813;1408
475.875;1411
475.938;1420
476.000;1420
476.063;1416
476.125;1418
476.188;1416
476.250;1416
476.313;1418
476.375;1416
476.438;1413
476.500;1416
476.563;1411
476.625;1420
476.688;1423
476.750;1423
476.813;1420
476.875;1411
476.938;1423
477.000;1420
477.063;1423
477.125;1413
477.188;1406
477.250;1408
477.313;1416
477.375;1413
477.438;1416
477.500;1418
477.563;1420
477.625;1416
477.688;1420
477.750;1420
477.813;1413
477.875;1418
477.938;1420
478.000;1411
478.063;1416
478.125;1430
478.188;1416
478.250;1416
478.313;1413
478.375;1411
478.438;1413
478.500;1408
478.563;1413
478.625;1423
478.688;1418
478.750;1423
478.813;1408
478.875;1418
478.938;1420
479.000;1411
479.063;1420
479.125;1418
479.188;1416
479.250;1418
479.313;1420
479.375;1418
479.438;1413
479.500;1411
479.563;1416
479.625;1416
479.688;1413
479.750;1413
479.813;1413
479.875;1425
479.938;1418
480.000;1423
480.063;1408
480.125;1413
480.188;1418
480.250;1423
480.313;1418
480.375;1416
480.438;1418
480.500;1413
480.563;1413
480.625;1413
480.688;1418
480.750;1411
480.813;1403
480.875;1423
480.938;1418
481.000;1416
481.063;1418
481.125;1406
481.188;1413
481.250;1413
481.313;1411
481.375;1416
481.438;1413
481.500;1413
481.563;1408
481.625;1418
481.688;1413
481.750;1413
481.813;1406
481.875;1416
481.938;1413
482.000;1408
482.063;1411
482.125;1403
482.188;1408
482.250;1401
482.313;1403
482.375;1413
482.438;1411
482.500;1408
482.563;1408
482.625;1406
482.688;1398
482.750;1403
482.813;1406
482.875;1403
482.938;1411
483.000;1406
483.063;1406
483.125;1406
483.188;1406
483.250;1416
483.313;1396
483.375;1403
483.438;1401
483.500;1403
483.563;1403
483.625;1408
483.688;1403
483.750;1408
483.813;1411
483.875;1408
483.938;1411
484.000;1403
484.063;1406
484.125;1406
484.188;1403
484.250;1401
484.313;1406
484.375;1403
484.438;1398
484.500;1398
484.563;1403
484.625;1406
484.688;1406
484.750;1398
484.813;1406
484.875;1408
484.938;1403
485.000;1403
485.063;1403
485.125;1408
485.188;1401
485.250;1403
485.313;1408
485.375;1406
485.438;1403
485.500;1411
485.563;1406
485.625;1406
485.688;1411
485.750;1411
485.813;1411
485.875;1398
485.938;1401
486.000;1398
486.063;1413
486.125;1398
486.188;1398
486.250;1408
486.313;1408
486.375;1406
486.438;1416
486.500;1413
486.563;1406
486.625;1398
486.688;1403
486.750;1403
486.813;1408
486.875;1403
486.938;1406
487.000;1403
487.063;1408
487.125;1406
487.188;1411
487.250;1401
487.313;1413
487.375;1401
487.438;1403
487.500;1408
487.563;1408
487.625;1416
487.688;1408
487.750;1413
487.813;1406
487.875;1406
487.938;1411
488.000;1408
488.063;1406
488.125;1408
488.188;1416
488.250;1413
488.313;1420
488.375;1403
488.438;1408
488.500;1413
488.563;1413
488.625;1406
488.688;1416
488.750;1406
488.813;1416
488.875;1406
488.938;1406
489.000;1406
489.063;1408
489.125;1411
489.188;1416
489.250;1418
489.313;1413
489.375;1428
489.438;1413
489.500;1418
489.563;1413
489.625;1408
489.688;1401
489.750;1408
489.813;1413
489.875;1408
489.938;1406
490.000;1411
490.063;1403
490.125;1411
490.188;1413
490.250;1403
490.313;1411
490.375;1411
490.438;1418
490.500;1408
490.563;1416
490.625;1403
490.688;1411
490.750;1411
490.813;1418
490.875;1411
490.938;1406
491.000;1408
491.063;1413
491.125;1403
491.188;1411
491.250;1406
491.313;1408
491.375;1416
491.438;1413
491.500;1408
491.563;1411
491.625;1413
491.688;1413
491.750;1416
491.813;1418
491.875;1406
491.938;1411
492.000;1413
492.063;1413
492.125;1408
492.188;1403
492.250;1411
492.313;1401
492.375;1406
492.438;1418
492.500;1411
492.563;1408
492.625;1406
492.688;1396
492.750;1403
492.813;1406
492.875;1403
492.938;1413
493.000;1401
493.063;1401
493.125;1406
493.188;1403
493.250;1401
493.313;1401
493.375;1403
493.438;1413
493.500;1408
493.563;1406
493.625;1406
493.688;1396
493.750;1416
493.813;1413
493.875;1406
493.938;1403
494.000;1406
494.063;1411
494.125;1401
494.188;1401
494.250;1406
494.313;1411
494.375;1398
494.438;1398
494.500;1386
494.563;1408
494.625;1396
494.688;1401
494.750;1398
494.813;1398
494.875;1408
494.938;1396
495.000;1413
495.063;1401
495.125;1401
495.188;1403
495.250;1401
495.313;1396
495.375;1401
495.438;1398
495.500;1396
495.563;1396
495.625;1394
495.688;1396
495.750;1403
495.813;1396
495.875;1401
495.938;1403
496.000;1401
496.063;1396
496.125;1401
496.188;1408
496.250;1398
496.313;1394
496.375;1406
496.438;1401
496.500;1401
496.563;1398
496.625;1398
496.688;1403
496.750;1403
496.813;1398
496.875;1398
496.938;1403
497.000;1406
497.063;1401
497.125;1408
497.188;1398
497.250;1401
497.313;1406
497.375;1396
497.438;1396
497.500;1398
497.563;1406
497.625;1406
497.688;1396
497.750;1391
497.813;1401
497.875;1398
497.938;1403
498.000;1389
498.063;1391
498.125;1406
498.188;1411
498.250;1406
498.313;1401
498.375;1413
498.438;1408
498.500;1398
498.563;1406
498.625;1406
498.688;1401
498.750;1398
498.813;1398
498.875;1406
498.938;1406
499.000;1401
499.063;1406
499.125;1394
499.188;1398
499.250;1408
499.313;1398
499.375;1403
499.438;1401
499.500;1401
499.563;1403
499.625;1401
499.688;1403
499.750;1391
499.813;1396
499.875;1401
499.938;1408
500.000;1401
500.063;1406
500.125;1406
500.188;1401
500.250;1406
500.313;1406
500.375;1411
500.438;1401
500.500;1406
500.563;1401
500.625;1401
500.688;1401
500.750;1408
500.813;1406
500.875;1408
500.938;1406
501.000;1406
501.063;1408
501.125;1403
501.188;1406
501.250;1413
501.313;1411
501.375;1413
501.438;1396
501.500;1403
501.563;1403
501.625;1396
501.688;1406
501.750;1401
501.813;1403
501.875;1408
501.938;1403
502.000;1413
502.063;1408
502.125;1398
502.188;1406
502.250;1406
502.313;1411
502.375;1408
502.438;1403
502.500;1406
502.563;1411
502.625;1408
502.688;1416
502.750;1406
502.813;1408
502.875;1411
502.938;1408
503.000;1406
503.063;1411
503.125;1403
503.188;1401
503.250;1401
503.313;1401
503.375;1406
503.438;1408
503.500;1408
503.563;1403
503.625;1408
503.688;1403
503.750;1403
503.813;1401
503.875;1398
503.938;1403
504.000;1408
504.063;1403
504.125;1406
504.188;1401
504.250;1394
504.313;1406
504.375;1408
504.438;1406
504.500;1398
504.563;1401
504.625;1403
504.688;1398
504.750;1403
504.813;1401
504.875;1396
504.938;1396
505.000;1403
505.063;1394
505.125;1403
505.188;1406
505.250;1401
505.313;1398
505.375;1396
505.438;1401
505.500;1411
505.563;1394
505.625;1406
505.688;1398
505.750;1401
505.813;1394
505.875;1396
505.938;1394
506.000;1396
506.063;1398
506.125;1389
506.188;1394
506.250;1401
506.313;1398
506.375;1398
506.438;1396
506.500;1398
506.563;1398
506.625;1401
506.688;1396
506.750;1391
506.813;1396
506.875;1394
506.938;1394
507.000;1394
507.063;1403
507.125;1394
507.188;1398
507.250;1398
507.313;1401
507.375;1391
507.438;1396
507.500;1398
507.563;1386
507.625;1386
507.688;1396
507.750;1398
507.813;1394
507.875;1386
507.938;1389
508.000;1389
508.063;1386
508.125;1394
508.188;1396
508.250;1389
508.313;1394
508.375;1384
508.438;1394
508.500;1384
508.563;1403
508.625;1389
508.688;1394
508.750;1381
508.813;1394
508.875;1401
508.938;1394
509.000;1396
509.063;1391
509.125;1396
509.188;1401
509.250;1389
509.313;1396
509.375;1391
509.438;1386
509.500;1391
509.563;1384
509.625;1394
509.688;1391
509.750;1386
509.813;1389
509.875;1391
509.938;1396
510.000;1401
510.063;1384
510.125;1396
510.188;1389
510.250;1396
510.313;1391
510.375;1389
510.438;1396
510.500;1386
510.563;1391
510.625;1396
510.688;1394
510.750;1391
510.813;1401
510.875;1391
510.938;1396
511.000;1396
511.063;1394
511.125;1389
511.188;1391
511.250;1401
511.313;1401
511.375;1391
511.438;1396
511.500;1396
511.563;1398
511.625;1403
511.688;1408
511.750;1398
511.813;1401
511.875;1394
511.938;1394
512.000;1398
512.063;1398
512.125;1398
512.188;1389
512.250;1398
512.313;1396
512.375;1396
512.438;1398
512.500;1394
512.563;1398
512.625;1396
512.688;1396
512.750;1401
512.813;1398
512.875;1398
512.938;1401
513.000;1413
513.063;1398
513.125;1398
513.188;1401
513.250;1391
513.313;1398
513.375;1398
513.438;1403
513.500;1401
513.563;1398
513.625;1398
513.688;1398
513.750;1401
513.813;1401
513.875;1398
513.938;1401
514.000;1401
514.063;1403
514.125;1394
514.188;1406
514.250;1403
514.313;1403
514.375;1411
514.438;1401
514.500;1401
514.563;1396
514.625;1406
514.688;1403
514.750;1396
514.813;1406
514.875;1408
514.938;1396
515.000;1406
515.063;1398
515.125;1403
515.188;1403
515.250;1406
515.313;1408
515.375;1396
515.438;1396
515.500;1396
515.563;1406
515.625;1403
515.688;1411
515.750;1398
515.813;1398
515.875;1398
515.938;1408
516.000;1401
516.063;1391
516.125;1403
516.188;1406
516.250;1403
516.313;1403
516.375;1398
516.438;1403
516.500;1401
516.563;1401
516.625;1398
516.688;1401
516.750;1398
516.813;1396
516.875;1401
516.938;1401
517.000;1406
517.063;1401
517.125;1394
517.188;1396
517.250;1394
517.313;1401
517.375;1411
517.438;1403
517.500;1398
517.563;1396
517.625;1411
517.688;1386
517.750;1401
517.813;1401
517.875;1403
517.938;1394
518.000;1396
518.063;1396
518.125;1391
518.188;1394
518.250;1403
518.313;1396
518.375;1389
518.438;1394
518.500;1396
518.563;1403
518.625;1391
518.688;1396
518.750;1401
518.813;1396
518.875;1396
518.938;1396
519.000;1394
519.063;1391
519.125;1401
519.188;1394
519.250;1394
519.313;1394
519.375;1391
519.438;1394
519.500;1394
519.563;1396
519.625;1389
519.688;1396
519.750;1394
519.813;1391
519.875;1391
519.938;1391
520.000;1389
520.063;1396
520.125;1386
520.188;1384
520.250;1391
520.313;1386
520.375;1386
520.438;1386
520.500;1386
520.563;1386
520.625;1391
520.688;1394
520.750;1389
520.813;1391
520.875;1391
520.938;1391
521.000;1396
521.063;1398
521.125;1398
521.188;1401
521.250;1384
521.313;1386
521.375;1396
521.438;1401
521.500;1391
521.563;1391
521.625;1389
521.688;1396
521.750;1396
521.813;1391
521.875;1401
521.938;1386
522.000;1396
522.063;1398
522.125;1401
522.188;1386
522.250;1391
522.313;1391
522.375;1396
522.438;1394
522.500;1398
522.563;1401
522.625;1389
522.688;1389
522.750;1391
522.813;1391
522.875;1396
522.938;1398
523.000;1403
523.063;1389
523.125;1394
523.188;1391
523.250;1396
523.313;1391
523.375;1386
523.438;1398
523.500;1391
523.563;1398
523.625;1401
523.688;1396
523.750;1394
523.813;1398
523.875;1406
523.938;1401
524.000;1398
524.063;1396
524.125;1394
524.188;1408
524.250;1394
524.313;1391
524.375;1408
524.438;1391
524.500;1398
524.563;1398
524.625;1391
524.688;1401
524.750;1394
524.813;1398
524.875;1406
524.938;1396
525.000;1403
525.063;1394
525.125;1391
525.188;1396
525.250;1403
525.313;1408
525.375;1403
525.438;1398
525.500;1406
525.563;1394
525.625;1398
525.688;1398
525.750;1396
525.813;1398
525.875;1394
525.938;1398
526.000;1401
526.063;1396
526.125;1398
526.188;1396
526.250;1398
526.313;1401
526.375;1398
526.438;1394
526.500;1406
526.563;1396
526.625;1394
526.688;1403
526.750;1386
526.813;1396
526.875;1398
526.938;1398
527.000;1396
527.063;1396
527.125;1403
527.188;1391
527.250;1394
527.313;1391
527.375;1403
527.438;1396
527.500;1394
527.563;1401
527.625;1408
527.688;1411
527.750;1396
527.813;1396
527.875;1389
527.938;1391
528.000;1398
528.063;1386
528.125;1396
528.188;1401
528.250;1391
528.313;1401
528.375;1398
528.438;1401
528.500;1398
528.563;1391
528.625;1398
528.688;1401
528.750;1398
528.813;1401
528.875;1391
528.938;1394
529.000;1401
529.063;1384
529.125;1403
529.188;1396
529.250;1394
529.313;1389
529.375;1396
529.438;1398
529.500;1386
529.563;1396
529.625;1401
529.688;1401
529.750;1396
529.813;1394
529.875;1396
529.938;1384
530.000;1394
530.063;1394
530.125;1386
530.188;1391
530.250;1394
530.313;1396
530.375;1391
530.438;1389
530.500;1386
530.563;1391
530.625;1394
530.688;1394
530.750;1389
530.813;1401
530.875;1398
530.938;1403
531.000;1391
531.063;1394
531.125;1389
531.188;1406
531.250;1396
531.313;1389
531.375;1391
531.438;1384
531.500;1394
531.563;1386
531.625;1381
531.688;1398
531.750;1396
531.813;1381
531.875;1394
531.938;1398
532.000;1398
532.063;1396
532.125;1394
532.188;1394
532.250;1389
532.313;1391
532.375;1386
532.438;1386
532.500;1384
532.563;1386
532.625;1389
532.688;1394
532.750;1394
532.813;1396
532.875;1391
532.938;1386
533.000;1396
533.063;1396
533.125;1398
533.188;1384
533.250;1391
533.313;1384
533.375;1394
533.438;1389
533.500;1379
533.563;1394
533.625;1376
533.688;1384
533.750;1386
533.813;1386
533.875;1389
533.938;1386
534.000;1384
534.063;1389
534.125;1381
534.188;1389
534.250;1396
534.313;1396
534.375;1394
534.438;1379
534.500;1386
534.563;1398
534.625;1396
534.688;1398
534.750;1381
534.813;1391
534.875;1396
534.938;1381
535.000;1391
535.063;1386
535.125;1396
535.188;1391
535.250;1394
535.313;1376
535.375;1394
535.438;1379
535.500;1396
535.563;1394
535.625;1396
535.688;1384
535.750;1389
535.813;1394
535.875;1391
535.938;1394
536.000;1398
536.063;1394
536.125;1394
536.188;1389
536.250;1394
536.313;1401
536.375;1396
536.438;1394
536.500;1391
536.563;1391
536.625;1386
536.688;1384
536.750;1391
536.813;1394
536.875;1396
536.938;1389
537.000;1391
537.063;1391
537.125;1384
537.188;1386
537.250;1394
537.313;1386
537.375;1391
537.438;1394
537.500;1391
537.563;1386
537.625;1384
537.688;1389
537.750;1391
537.813;1391
537.875;1389
537.938;1389
538.000;1391
538.063;1401
538.125;1389
538.188;1401
538.250;1394
538.313;1389
538.375;1396
538.438;1396
538.500;1398
538.563;1386
538.625;1396
538.688;1376
538.750;1394
538.813;1394
538.875;1391
538.938;1386
539.000;1389
539.063;1394
539.125;1389
539.188;1394
539.250;1398
539.313;1408
539.375;1391
539.438;1389
539.500;1391
539.563;1396
539.625;1389
539.688;1391
539.750;1394
539.813;1394
539.875;1391
539.938;1401
540.000;1401
540.063;1389
540.125;1394
540.188;1391
540.250;1394
540.313;1398
540.375;1389
540.438;1394
540.500;1389
540.563;1396
540.625;1396
540.688;1381
540.750;1391
540.813;1394
540.875;1391
540.938;1389
541.000;1389
541.063;1391
541.125;1398
541.188;1394
541.250;1384
541.313;1389
541.375;1389
541.438;1384
541.500;1384
541.563;1391
541.625;1384
541.688;1386
541.750;1386
541.813;1394
541.875;1391
541.938;1384
542.000;1386
542.063;1386
542.125;1386
542.188;1381
542.250;1391
542.313;1386
542.375;1384
542.438;1386
542.500;1386
542.563;1384
542.625;1389
542.688;1386
542.750;1386
542.813;1381
542.875;1386
542.938;1386
543.000;1391
543.063;1379
543.125;1391
543.188;1386
543.250;1389
543.313;1379
543.375;1384
543.438;1386
543.500;1379
543.563;1384
543.625;1384
543.688;1381
543.750;1391
543.813;1394
543.875;1384
543.938;1389
544.000;1394
544.063;1389
544.125;1391
544.188;1381
544.250;1384
544.313;1379
544.375;1379
544.438;1374
544.500;1376
544.563;1381
544.625;1386
544.688;1389
544.750;1386
544.813;1381
544.875;1381
544.938;1386
545.000;1384
545.063;1381
545.125;1384
545.188;1389
545.250;1376
545.313;1379
545.375;1374
545.438;1381
545.500;1376
545.563;1379
545.625;1376
545.688;1379
545.750;1381
545.813;1384
545.875;1381
545.938;1381
546.000;1376
546.063;1381
546.125;1376
546.188;1389
546.250;1379
546.313;1381
546.375;1384
546.438;1384
546.500;1389
546.563;1384
546.625;1376
546.688;1379
546.750;1394
546.813;1379
546.875;1374
546.938;1381
547.000;1376
547.063;1376
547.125;1381
547.188;1379
547.250;1372
547.313;1386
547.375;1379
547.438;1376
547.500;1381
547.563;1391
547.625;1376
547.688;1386
547.750;1374
547.813;1384
547.875;1391
547.938;1384
548.000;1381
548.063;1379
548.125;1374
548.188;1374
548.250;1386
548.313;1374
548.375;1381
548.438;1384
548.500;1374
548.563;1379
548.625;1381
548.688;1381
548.750;1381
548.813;1384
548.875;1379
548.938;1381
549.000;1389
549.063;1389
549.125;1384
549.188;1379
549.250;1376
549.313;1374
549.375;1381
549.438;1384
549.500;1374
549.563;1381
549.625;1381
549.688;1384
549.750;1381
549.813;1394
549.875;1386
549.938;1379
550.000;1381
550.063;1381
550.125;1396
550.188;1379
550.250;1381
550.313;1394
550.375;1386
550.438;1389
550.500;1389
550.563;1386
550.625;1381
550.688;1386
550.750;1376
550.813;1386
550.875;1389
550.938;1381
551.000;1379
551.063;1379
551.125;1389
551.188;1384
551.250;1391
551.313;1384
551.375;1376
551.438;1391
551.500;1389
551.563;1384
551.625;1389
551.688;1391
551.750;1391
551.813;1394
551.875;1381
551.938;1384
552.000;1381
552.063;1384
552.125;1381
552.188;1384
552.250;1386
552.313;1384
552.375;1379
552.438;1386
552.500;1389
552.563;1386
552.625;1389
552.688;1384
552.750;1389
552.813;1391
552.875;1384
552.938;1379
553.000;1396
553.063;1384
553.125;1386
553.188;1386
553.250;1384
553.313;1384
553.375;1384
553.438;1384
553.500;1384
553.563;1379
553.625;1386
553.688;1384
553.750;1386
553.813;1372
553.875;1389
553.938;1389
554.000;1381
554.063;1386
554.125;1384
554.188;1384
554.250;1386
554.313;1384
554.375;1391
554.438;1381
554.500;1389
554.563;1381
554.625;1386
554.688;1376
554.750;1381
554.813;1386
554.875;1376
554.938;1379
555.000;1384
555.063;1386
555.125;1381
555.188;1381
555.250;1379
555.313;1374
555.375;1384
555.438;1384
555.500;1386
555.563;1374
555.625;1384
555.688;1386
555.750;1381
555.813;1394
555.875;1374
555.938;1386
556.000;1376
556.063;1376
556.125;1384
556.188;1374
556.250;1386
556.313;1374
556.375;1372
556.438;1384
556.500;1381
556.563;1379
556.625;1386
556.688;1386
556.750;1391
556.813;1379
556.875;1376
556.938;1389
557.000;1376
557.063;1384
557.125;1376
557.188;1386
557.250;1376
557.313;1376
557.375;1384
557.438;1379
557.500;1374
557.563;1384
557.625;1376
557.688;1386
557.750;1376
557.813;1374
557.875;1374
557.938;1386
558.000;1376
558.063;1372
558.125;1379
558.188;1374
558.250;1376
558.313;1379
558.375;1386
558.438;1379
558.500;1384
558.563;1386
558.625;1374
558.688;1381
558.750;1374
558.813;1376
558.875;1381
558.938;1384
559.000;1384
559.063;1386
559.125;1381
559.188;1379
559.250;1384
559.313;1386
559.375;1381
559.438;1381
559.500;1381
559.563;1376
559.625;1374
559.688;1379
559.750;1384
559.813;1381
559.875;1381
559.938;1386
560.000;1386
560.063;1391
560.125;1381
560.188;1374
560.250;1381
560.313;1386
560.375;1386
560.438;1396
560.500;1389
560.563;1381
560.625;1384
560.688;1381
560.750;1384
560.813;1386
560.875;1391
560.938;1389
561.000;1389
561.063;1384
561.125;1391
561.188;1381
561.250;1391
561.313;1391
561.375;1391
561.438;1394
561.500;1394
561.563;1401
561.625;1379
561.688;1389
561.750;1386
561.813;1376
561.875;1386
561.938;1381
562.000;1386
562.063;1386
562.125;1391
562.188;1379
562.250;1386
562.313;1394
562.375;1386
562.438;1384
562.500;1391
562.563;1396
562.625;1386
562.688;1394
562.750;1391
562.813;1386
562.875;1389
562.938;1389
563.000;1394
563.063;1379
563.125;1389
563.188;1386
563.250;1391
563.313;1374
563.375;1391
563.438;1389
563.500;1381
563.563;1386
563.625;1394
563.688;1396
563.750;1394
563.813;1391
563.875;1379
563.938;1386
564.000;1391
564.063;1394
564.125;1391
564.188;1384
564.250;1384
564.313;1389
564.375;1391
564.438;1394
564.500;1396
564.563;1391
564.625;1386
564.688;1389
564.750;1386
564.813;1394
564.875;1384
564.938;1384
565.000;1381
565.063;1384
565.125;1391
565.188;1394
565.250;1389
565.313;1376
565.375;1381
565.438;1394
565.500;1381
565.563;1389
565.625;1389
565.688;1386
565.750;1384
565.813;1391
565.875;1391
565.938;1394
566.000;1384
566.063;1391
566.125;1386
566.188;1379
566.250;1386
566.313;1381
566.375;1386
566.438;1381
566.500;1379
566.563;1386
566.625;1381
566.688;1384
566.750;1384
566.813;1386
566.875;1389
566.938;1381
567.000;1389
567.063;1394
567.125;1386
567.188;1384
567.250;1381
567.313;1381
567.375;1386
567.438;1376
567.500;1389
567.563;1384
567.625;1386
567.688;1391
567.750;1391
567.813;1381
567.875;1391
567.938;1384
568.000;1389
568.063;1384
568.125;1376
568.188;1389
568.250;1384
568.313;1389
568.375;1386
568.438;1381
568.500;1386
568.563;1384
568.625;1389
568.688;1386
568.750;1389
568.813;1376
568.875;1389
568.938;1381
569.000;1379
569.063;1384
569.125;1379
569.188;1376
569.250;1384
569.313;1381
569.375;1376
569.438;1396
569.500;1381
569.563;1374
569.625;1391
569.688;1381
569.750;1386
569.813;1379
569.875;1386
569.938;1391
570.000;1386
570.063;1389
570.125;1386
570.188;1384
570.250;1386
570.313;1379
570.375;1386
570.438;1384
570.500;1389
570.563;1384
570.625;1384
570.688;1391
570.750;1391
570.813;1384
570.875;1386
570.938;1381
571.000;1379
571.063;1376
571.125;1386
571.188;1386
571.250;1391
571.313;1386
571.375;1381
571.438;1381
571.500;1379
571.563;1384
571.625;1389
571.688;1381
571.750;1381
571.813;1384
571.875;1379
571.938;1384
572.000;1384
572.063;1376
572.125;1381
572.188;1374
572.250;1386
572.313;1389
572.375;1381
572.438;1384
572.500;1381
572.563;1386
572.625;1384
572.688;1386
572.750;1384
572.813;1386
572.875;1389
572.938;1389
573.000;1389
573.063;1379
573.125;1381
573.188;1381
573.250;1386
573.313;1394
573.375;1384
573.438;1389
573.500;1391
573.563;1396
573.625;1386
573.688;1381
573.750;1394
573.813;1389
573.875;1389
573.938;1389
574.000;1389
574.063;1389
574.125;1389
574.188;1394
574.250;1386
574.313;1379
574.375;1391
574.438;1386
574.500;1391
574.563;1391
574.625;1384
574.688;1389
574.750;1389
574.813;1394
574.875;1394
574.938;1389
575.000;1391
575.063;1389
575.125;1381
575.188;1391
575.250;1379
575.313;1386
575.375;1386
575.438;1394
575.500;1389
575.563;1389
575.625;1389
575.688;1384
575.750;1386
575.813;1384
575.875;1396
575.938;1376
576.000;1386
576.063;1389
576.125;1386
576.188;1384
576.250;1386
576.313;1391
576.375;1386
576.438;1386
576.500;1381
576.563;1389
576.625;1379
576.688;1389
576.750;1389
576.813;1386
576.875;1374
576.938;1381
577.000;1394
577.063;1386
577.125;1389
577.188;1386
577.250;1389
577.313;1379
577.375;1384
577.438;1394
577.500;1381
577.563;1389
577.625;1391
577.688;1381
577.750;1396
577.813;1379
577.875;1396
577.938;1384
578.000;1391
578.063;1386
578.125;1386
578.188;1386
578.250;1389
578.313;1391
578.375;1376
578.438;1396
578.500;1381
578.563;1384
578.625;1389
578.688;1384
578.750;1394
578.813;1384
578.875;1379
578.938;1394
579.000;1389
579.063;1374
579.125;1379
579.188;1376
579.250;1381
579.313;1396
579.375;1384
579.438;1394
579.500;1379
579.563;1386
579.625;1389
579.688;1379
579.750;1386
579.813;1374
579.875;1386
579.938;1386
580.000;1381
580.063;1384
580.125;1376
580.188;1376
580.250;1381
580.313;1389
580.375;1374
580.438;1386
580.500;1384
580.563;1384
580.625;1386
580.688;1386
580.750;1374
580.813;1379
580.875;1376
580.938;1376
581.000;1384
581.063;1381
581.125;1379
581.188;1384
581.250;1384
581.313;1381
581.375;1391
581.438;1381
581.500;1386
581.563;1384
581.625;1381
581.688;1381
581.750;1381
581.813;1376
581.875;1379
581.938;1384
582.000;1391
582.063;1381
582.125;1376
582.188;1369
582.250;1376
582.313;1379
582.375;1379
582.438;1376
582.500;1384
582.563;1376
582.625;1394
582.688;1381
582.750;1384
582.813;1386
582.875;1379
582.938;1381
583.000;1381
583.063;1374
583.125;1376
583.188;1384
583.250;1379
583.313;1381
583.375;1389
583.438;1379
583.500;1384
583.563;1396
583.625;1381
583.688;1379
583.750;1379
583.813;1384
583.875;1381
583.938;1384
584.000;1379
584.063;1379
584.125;1386
584.188;1376
584.250;1384
584.313;1384
584.375;1379
584.438;1384
584.500;1372
584.563;1384
584.625;1381
584.688;1384
584.750;1398
584.813;1384
584.875;1389
584.938;1384
585.000;1396
585.063;1386
585.125;1379
585.188;1386
585.250;1384
585.313;1381
585.375;1384
585.438;1386
585.500;1386
585.563;1389
585.625;1381
585.688;1384
585.750;1389
585.813;1389
585.875;1384
585.938;1389
586.000;1379
586.063;1386
586.125;1389
586.188;1384
586.250;1386
586.313;1386
586.375;1386
586.438;1389
586.500;1386
586.563;1384
586.625;1386
586.688;1386
586.750;1394
586.813;1386
586.875;1389
586.938;1386
587.000;1386
587.063;1376
587.125;1372
587.188;1381
587.250;1379
587.313;1391
587.375;1381
587.438;1391
587.500;1384
587.563;1396
587.625;1381
587.688;1386
587.750;1389
587.813;1386
587.875;1386
587.938;1394
588.000;1389
588.063;1389
588.125;1394
588.188;1391
588.250;1386
588.313;1394
588.375;1389
588.438;1376
588.500;1376
588.563;1384
588.625;1386
588.688;1401
588.750;1396
588.813;1391
588.875;1386
588.938;1379
589.000;1389
589.063;1386
589.125;1391
589.188;1386
589.250;1376
589.313;1391
589.375;1381
589.438;1376
589.500;1386
589.563;1384
589.625;1386
589.688;1381
589.750;1384
589.813;1389
589.875;1386
589.938;1381
590.000;1389
590.063;1386
590.125;1384
590.188;1384
590.250;1379
590.313;1384
590.375;1381
590.438;1391
590.500;1389
590.563;1376
590.625;1381
590.688;1374
590.750;1384
590.813;1389
590.875;1376
590.938;1379
591.000;1379
591.063;1372
591.125;1381
591.188;1384
591.250;1384
591.313;1384
591.375;1379
591.438;1379
591.500;1376
591.563;1374
591.625;1379
591.688;1379
591.750;1379
591.813;1384
591.875;1374
591.938;1386
592.000;1384
592.063;1386
592.125;1384
592.188;1386
592.250;1374
592.313;1381
592.375;1379
592.438;1374
592.500;1372
592.563;1379
592.625;1389
592.688;1389
592.750;1386
592.813;1374
592.875;1386
592.938;1374
593.000;1386
593.063;1384
593.125;1376
593.188;1376
593.250;1381
593.313;1374
593.375;1384
593.438;1376
593.500;1376
593.563;1381
593.625;1379
593.688;1367
593.750;1379
593.813;1376
593.875;1386
593.938;1381
594.000;1381
594.063;1374
594.125;1384
594.188;1386
594.250;1364
594.313;1379
594.375;1374
594.438;1381
594.500;1381
594.563;1376
594.625;1367
594.688;1372
594.750;1379
594.813;1376
594.875;1389
594.938;1379
595.000;1386
595.063;1384
595.125;1376
595.188;1374
595.250;1372
595.313;1381
595.375;1381
595.438;1376
595.500;1372
595.563;1376
595.625;1384
595.688;1384
595.750;1386
595.813;1381
595.875;1381
595.938;1376
596.000;1379
596.063;1386
596.125;1381
596.188;1374
596.250;1372
596.313;1367
596.375;1379
596.438;1374
596.500;1381
596.563;1386
596.625;1384
596.688;1374
596.750;1384
596.813;1384
596.875;1372
596.938;1376
597.000;1379
597.063;1381
597.125;1381
597.188;1379
597.250;1376
597.313;1381
597.375;1381
597.438;1381
597.500;1389
597.563;1379
597.625;1379
597.688;1374
597.750;1381
597.813;1386
597.875;1391
597.938;1386
598.000;1379
598.063;1379
598.125;1386
598.188;1381
598.250;1376
598.313;1379
598.375;1376
598.438;1381
598.500;1386
598.563;1381
598.625;1384
598.688;1384
598.750;1379
598.813;1381
598.875;1384
598.938;1381
599.000;1381
599.063;1384
599.125;1381
599.188;1384
599.250;1394
599.313;1379
599.375;1374
599.438;1381
599.500;1384
599.563;1381
599.625;1394
599.688;1379
599.750;1386
599.813;1389
599.875;1379
599.938;1376
600.000;1391
600.063;1386
600.125;1391
600.188;1389
600.250;1386
600.313;1391
600.375;1384
600.438;1396
600.500;1384
600.563;1376
600.625;1381
600.688;1374
600.750;1384
600.813;1384
600.875;1389
600.938;1381
601.000;1376
601.063;1381
601.125;1391
601.188;1384
601.250;1386
601.313;1381
601.375;1389
601.438;1391
601.500;1394
601.563;1379
601.625;1384
601.688;1384
601.750;1381
601.813;1376
601.875;1376
601.938;1389
602.000;1391
602.063;1381
602.125;1381
602.188;1381
602.250;1384
602.313;1386
602.375;1389
602.438;1391
602.500;1376
602.563;1394
602.625;1372
602.688;1389
602.750;1379
602.813;1381
602.875;1384
602.938;1381
603.000;1381
603.063;1372
603.125;1379
603.188;1381
603.250;1374
603.313;1374
603.375;1379
603.438;1386
603.500;1379
603.563;1381
603.625;1376
603.688;1389
603.750;1379
603.813;1374
603.875;1389
603.938;1379
604.000;1384
604.063;1384
604.125;1384
604.188;1381
604.250;1381
604.313;1381
604.375;1379
604.438;1384
604.500;1379
604.563;1379
604.625;1386
604.688;1376
604.750;1379
604.813;1384
604.875;1381
604.938;1384
605.000;1372
605.063;1369
605.125;1374
605.188;1379
605.250;1369
605.313;1384
605.375;1379
605.438;1374
605.500;1376
605.563;1372
605.625;1389
605.688;1389
605.750;1379
605.813;1369
605.875;1384
605.938;1376
606.000;1381
606.063;1379
606.125;1374
606.188;1369
606.250;1376
606.313;1381
606.375;1384
606.438;1381
606.500;1369
606.563;1372
606.625;1374
606.688;1376
606.750;1369
606.813;1381
606.875;1384
606.938;1381
607.000;1376
607.063;1379
607.125;1379
607.188;1386
607.250;1379
607.313;1384
607.375;1379
607.438;1372
607.500;1376
607.563;1376
607.625;1372
607.688;1384
607.750;1379
607.813;1381
607.875;1381
607.938;1391
608.000;1384
608.063;1381
608.125;1381
608.188;1374
608.250;1374
608.313;1376
608.375;1376
608.438;1372
608.500;1376
608.563;1379
608.625;1381
608.688;1372
608.750;1381
608.813;1379
608.875;1384
608.938;1376
609.000;1381
609.063;1381
609.125;1386
609.188;1374
609.250;1372
609.313;1374
609.375;1381
609.438;1379
609.500;1369
609.563;1384
609.625;1384
609.688;1379
609.750;1374
609.813;1381
609.875;1372
609.938;1376
610.000;1376
610.063;1376
610.125;1379
610.188;1386
610.250;1374
610.313;1374
610.375;1379
610.438;1374
610.500;1376
610.563;1372
610.625;1384
610.688;1384
610.750;1379
610.813;1379
610.875;1379
610.938;1379
611.000;1374
611.063;1381
611.125;1379
611.188;1381
611.250;1386
611.313;1376
611.375;1381
611.438;1391
611.500;1384
611.563;1386
611.625;1369
611.688;1379
611.750;1384
611.813;1367
611.875;1381
611.938;1391
612.000;1381
612.063;1381
612.125;1374
612.188;1372
612.250;1381
612.313;1381
612.375;1381
612.438;1381
612.500;1379
612.563;1381
612.625;1381
612.688;1372
612.750;1374
612.813;1367
612.875;1386
612.938;1384
613.000;1376
613.063;1376
613.125;1376
613.188;1379
613.250;1379
613.313;1379
613.375;1376
613.438;1384
613.500;1389
613.563;1376
613.625;1381
613.688;1376
613.750;1384
613.813;1374
613.875;1374
613.938;1374
614.000;1376
614.063;1384
614.125;1381
614.188;1389
614.250;1391
614.313;1389
614.375;1381
614.438;1386
614.500;1386
614.563;1386
614.625;1384
614.688;1389
614.750;1381
614.813;1381
614.875;1389
614.938;1384
615.000;1379
615.063;1381
615.125;1389
615.188;1381
615.250;1379
615.313;1386
615.375;1379
615.438;1381
615.500;1386
615.563;1379
615.625;1374
615.688;1374
615.750;1379
615.813;1384
615.875;1376
615.938;1381
616.000;1389
616.063;1389
616.125;1381
616.188;1389
616.250;1384
616.313;1384
616.375;1386
616.438;1376
616.500;1376
616.563;1384
616.625;1381
616.688;1374
616.750;1379
616.813;1381
616.875;1379
616.938;1374
617.000;1381
617.063;1372
617.125;1374
617.188;1386
617.250;1381
617.313;1369
617.375;1384
617.438;1376
617.500;1369
617.563;1384
617.625;1376
617.688;1376
617.750;1376
617.813;1369
617.875;1374
617.938;1381
618.000;1379
618.063;1379
618.125;1381
618.188;1384
618.250;1386
618.313;1379
618.375;1379
618.438;1386
618.500;1381
618.563;1374
618.625;1367
618.688;1381
618.750;1376
618.813;1374
618.875;1379
618.938;1376
619.000;1374
619.063;1379
619.125;1374
619.188;1376
619.250;1381
619.313;1376
619.375;1379
619.438;1379
619.500;1379
619.563;1384
619.625;1376
619.688;1374
619.750;1369
619.813;1381
619.875;1372
619.938;1384
620.000;1374
620.063;1381
620.125;1381
620.188;1391
620.250;1369
620.313;1386
620.375;1376
620.438;1376
620.500;1374
620.563;1381
620.625;1379
620.688;1376
620.750;1376
620.813;1374
620.875;1381
620.938;1381
621.000;1379
621.063;1381
621.125;1379
621.188;1374
621.250;1384
621.313;1374
621.375;1384
621.438;1372
621.500;1384
621.563;1384
621.625;1379
621.688;1376
621.750;1384
621.813;1381
621.875;1381
621.938;1381
622.000;1386
622.063;1376
622.125;1376
622.188;1384
622.250;1374
622.313;1374
622.375;1374
622.438;1374
622.500;1381
622.563;1374
622.625;1379
622.688;1386
622.750;1376
622.813;1381
622.875;1391
622.938;1384
623.000;1374
623.063;1384
623.125;1384
623.188;1384
623.250;1379
623.313;1369
623.375;1379
623.438;1379
623.500;1372
623.563;1379
623.625;1374
623.688;1386
623.750;1386
623.813;1386
623.875;1386
623.938;1374
624.000;1381
624.063;1384
624.125;1391
624.188;1381
624.250;1381
624.313;1384
624.375;1376
624.438;1381
624.500;1384
624.563;1372
624.625;1376
624.688;1379
624.750;1389
624.813;1391
624.875;1384
624.938;1381
625.000;1386
625.063;1386
625.125;1389
625.188;1391
625.250;1384
625.313;1379
625.375;1384
625.438;1379
625.500;1381
625.563;1381
625.625;1381
625.688;1379
625.750;1374
625.813;1376
625.875;1386
625.938;1379
626.000;1384
626.063;1386
626.125;1374
626.188;1391
626.250;1386
626.313;1384
626.375;1384
626.438;1381
626.500;1381
626.563;1386
626.625;1384
626.688;1379
626.750;1376
626.813;1379
626.875;1384
626.938;1386
627.000;1376
627.063;1391
627.125;1391
627.188;1372
627.250;1386
627.313;1386
627.375;1374
627.438;1379
627.500;1374
627.563;1374
627.625;1376
627.688;1386
627.750;1381
627.813;1374
627.875;1386
627.938;1372
628.000;1376
628.063;1379
628.125;1381
628.188;1381
628.250;1379
628.313;1384
628.375;1379
628.438;1367
628.500;1379
628.563;1374
628.625;1372
628.688;1389
628.750;1381
628.813;1376
628.875;1376
628.938;1381
629.000;1376
629.063;1379
629.125;1379
629.188;1381
629.250;1384
629.313;1376
629.375;1381
629.438;1384
629.500;1389
629.563;1379
629.625;1386
629.688;1391
629.750;1372
629.813;1386
629.875;1374
629.938;1376
630.000;1379
630.063;1381
630.125;1384
630.188;1376
630.250;1376
630.313;1369
630.375;1381
630.438;1379
630.500;1372
630.563;1384
630.625;1376
630.688;1381
630.750;1379
630.813;1386
630.875;1376
630.938;1376
631.000;1389
631.063;1384
631.125;1381
631.188;1372
631.250;1367
631.313;1376
631.375;1376
631.438;1379
631.500;1374
631.563;1376
631.625;1379
631.688;1372
631.750;1381
631.813;1372
631.875;1376
631.938;1376
632.000;1384
632.063;1379
632.125;1376
632.188;1381
632.250;1391
632.313;1384
632.375;1376
632.438;1376
632.500;1379
632.563;1379
632.625;1376
632.688;1372
632.750;1367
632.813;1381
632.875;1374
632.938;1379
633.000;1372
633.063;1381
633.125;1372
633.188;1369
633.250;1376
633.313;1372
633.375;1372
633.438;1379
633.500;1374
633.563;1369
633.625;1381
633.688;1369
633.750;1374
633.813;1374
633.875;1376
633.938;1374
634.000;1372
634.063;1376
634.125;1384
634.188;1376
634.250;1367
634.313;1374
634.375;1376
634.438;1381
634.500;1369
634.563;1376
634.625;1376
634.688;1381
634.750;1374
634.813;1379
634.875;1389
634.938;1376
635.000;1372
635.063;1374
635.125;1374
635.188;1381
635.250;1376
635.313;1376
635.375;1384
635.438;1364
635.500;1374
635.563;1374
635.625;1381
635.688;1376
635.750;1367
635.813;1381
635.875;1376
635.938;1372
636.000;1386
636.063;1386
636.125;1376
636.188;1376
636.250;1372
636.313;1374
636.375;1381
636.438;1374
636.500;1381
636.563;1379
636.625;1372
636.688;1376
636.750;1374
636.813;1376
636.875;1374
636.938;1376
637.000;1374
637.063;1386
637.125;1381
637.188;1381
637.250;1386
637.313;1386
637.375;1374
637.438;1374
637.500;1379
637.563;1381
637.625;1369
637.688;1379
637.750;1376
637.813;1379
637.875;1379
637.938;1384
638.000;1386
638.063;1369
638.125;1379
638.188;1381
638.250;1389
638.313;1376
638.375;1376
638.438;1376
638.500;1379
638.563;1381
638.625;1381
638.688;1391
638.750;1379
638.813;1381
638.875;1376
638.938;1376
639.000;1374
639.063;1386
639.125;1379
639.188;1384
639.250;1386
639.313;1379
639.375;1376
639.438;1381
639.500;1379
639.563;1372
639.625;1372
639.688;1376
639.750;1379
639.813;1376
639.875;1379
639.938;1372
640.000;1384
640.063;1376
640.125;1379
640.188;1384
640.250;1376
640.313;1386
640.375;1381
640.438;1372
640.500;1376
640.563;1381
640.625;1389
640.688;1384
640.750;1381
640.813;1376
640.875;1389
640.938;1379
641.000;1381
641.063;1381
641.125;1379
641.188;1376
641.250;1367
641.313;1369
641.375;1379
641.438;1381
641.500;1376
641.563;1379
641.625;1376
641.688;1386
641.750;1381
641.813;1381
641.875;1376
641.938;1384
642.000;1379
642.063;1386
642.125;1381
642.188;1386
642.250;1381
642.313;1386
642.375;1374
642.438;1381
642.500;1372
642.563;1374
642.625;1379
642.688;1379
642.750;1384
642.813;1376
642.875;1379
642.938;1384
643.000;1381
643.063;1381
643.125;1376
643.188;1374
643.250;1384
643.313;1381
643.375;1369
643.438;1376
643.500;1384
643.563;1381
643.625;1386
643.688;1384
643.750;1372
643.813;1381
643.875;1376
643.938;1384
644.000;1381
644.063;1372
644.125;1379
644.188;1379
644.250;1374
644.313;1381
644.375;1376
644.438;1384
644.500;1381
644.563;1389
644.625;1379
644.688;1376
644.750;1374
644.813;1376
644.875;1381
644.938;1379
645.000;1376
645.063;1376
645.125;1376
645.188;1379
645.250;1381
645.313;1374
645.375;1384
645.438;1372
645.500;1376
645.563;1372
645.625;1372
645.688;1389
645.750;1372
645.813;1389
645.875;1384
645.938;1386
646.000;1374
646.063;1372
646.125;1379
646.188;1376
646.250;1364
646.313;1379
646.375;1381
646.438;1379
646.500;1386
646.563;1381
646.625;1372
646.688;1379
646.750;1379
646.813;1376
646.875;1381
646.938;1384
647.000;1374
647.063;1372
647.125;1376
647.188;1367
647.250;1374
647.313;1381
647.375;1379
647.438;1381
647.500;1376
647.563;1379
647.625;1381
647.688;1384
647.750;1386
647.813;1376
647.875;1374
647.938;1384
648.000;1384
648.063;1381
648.125;1384
648.188;1384
648.250;1381
648.313;1376
648.375;1376
648.438;1374
648.500;1381
648.563;1384
648.625;1374
648.688;1374
648.750;1389
648.813;1369
648.875;1376
648.938;1376
649.000;1381
649.063;1379
649.125;1374
649.188;1376
649.250;1386
649.313;1381
649.375;1381
649.438;1381
649.500;1381
649.563;1376
649.625;1391
649.688;1381
649.750;1394
649.813;1386
649.875;1384
649.938;1386
650.000;1386
650.063;1376
650.125;1391
650.188;1372
650.250;1386
650.313;1374
650.375;1369
650.438;1386
650.500;1381
650.563;1374
650.625;1381
650.688;1381
650.750;1386
650.813;1384
650.875;1384
650.938;1386
651.000;1372
651.063;1381
651.125;1376
651.188;1374
651.250;1379
651.313;1381
651.375;1386
651.438;1384
651.500;1381
651.563;1376
651.625;1381
651.688;1374
651.750;1384
651.813;1379
651.875;1381
651.938;1386
652.000;1376
652.063;1376
652.125;1374
652.188;1374
652.250;1389
652.313;1376
652.375;1381
652.438;1389
652.500;1381
652.563;1386
652.625;1381
652.688;1376
652.750;1381
652.813;1379
652.875;1389
652.938;1386
653.000;1381
653.063;1381
653.125;1376
653.188;1381
653.250;1374
653.313;1381
653.375;1376
653.438;1381
653.500;1386
653.563;1381
653.625;1389
653.688;1389
653.750;1376
653.813;1384
653.875;1379
653.938;1376
654.000;1376
654.063;1372
654.125;1389
654.188;1379
654.250;1381
654.313;1376
654.375;1369
654.438;1391
654.500;1379
654.563;1389
654.625;1372
654.688;1374
654.750;1384
654.813;1376
654.875;1386
654.938;1376
655.000;1379
655.063;1372
655.125;1374
655.188;1379
655.250;1381
655.313;1374
655.375;1384
655.438;1381
655.500;1386
655.563;1386
655.625;1386
655.688;1391
655.750;1376
655.813;1376
655.875;1374
655.938;1386
656.000;1376
656.063;1376
656.125;1372
656.188;1376
656.250;1364
656.313;1384
656.375;1381
656.438;1384
656.500;1376
656.563;1381
656.625;1381
656.688;1367
656.750;1372
656.813;1381
656.875;1381
656.938;1374
657.000;1381
657.063;1384
657.125;1376
657.188;1374
657.250;1376
657.313;1374
657.375;1376
657.438;1376
657.500;1384
657.563;1379
657.625;1386
657.688;1374
657.750;1374
657.813;1374
657.875;1372
657.938;1376
658.000;1381
658.063;1381
658.125;1384
658.188;1374
658.250;1386
658.313;1379
658.375;1372
658.438;1376
658.500;1372
658.563;1374
658.625;1374
658.688;1374
658.750;1374
658.813;1379
658.875;1369
658.938;1369
659.000;1379
659.063;1386
659.125;1381
659.188;1381
659.250;1381
659.313;1367
659.375;1369
659.438;1374
659.500;1379
659.563;1379
659.625;1379
659.688;1389
659.750;1374
659.813;1372
659.875;1376
659.938;1374
660.000;1386
660.063;1374
660.125;1372
660.188;1391
660.250;1386
660.313;1379
660.375;1384
660.438;1381
660.500;1381
660.563;1389
660.625;1376
660.688;1379
660.750;1376
660.813;1381
660.875;1376
660.938;1398
661.000;1376
661.063;1374
661.125;1386
661.188;1374
661.250;1381
661.313;1386
661.375;1381
661.438;1381
661.500;1389
661.563;1376
661.625;1386
661.688;1381
661.750;1386
661.813;1369
661.875;1381
661.938;1376
662.000;1376
662.063;1379
662.125;1379
662.188;1381
662.250;1386
662.313;1379
662.375;1381
662.438;1376
662.500;1376
662.563;1381
662.625;1376
662.688;1381
662.750;1374
662.813;1384
662.875;1374
662.938;1381
663.000;1376
663.063;1391
663.125;1372
663.188;1389
663.250;1384
663.313;1376
663.375;1384
663.438;1386
663.500;1379
663.563;1369
663.625;1379
663.688;1381
663.750;1372
663.813;1386
663.875;1381
663.938;1376
664.000;1391
664.063;1379
664.125;1381
664.188;1379
664.250;1379
664.313;1384
664.375;1381
664.438;1369
664.500;1374
664.563;1386
664.625;1379
664.688;1384
664.750;1374
664.813;1381
664.875;1381
664.938;1376
665.000;1376
665.063;1376
665.125;1386
665.188;1381
665.250;1386
665.313;1379
665.375;1374
665.438;1381
665.500;1376
665.563;1374
665.625;1374
665.688;1394
665.750;1384
665.813;1369
665.875;1389
665.938;1379
666.000;1379
666.063;1376
666.125;1374
666.188;1376
666.250;1386
666.313;1384
666.375;1374
666.438;1384
666.500;1384
666.563;1386
666.625;1374
666.688;1386
666.750;1374
666.813;1384
666.875;1379
666.938;1381
667.000;1379
667.063;1386
667.125;1376
667.188;1386
667.250;1369
667.313;1376
667.375;1372
667.438;1372
667.500;1379
667.563;1369
667.625;1369
667.688;1381
667.750;1381
667.813;1376
667.875;1372
667.938;1376
668.000;1369
668.063;1376
668.125;1379
668.188;1372
668.250;1381
668.313;1374
668.375;1367
668.438;1379
668.500;1376
668.563;1376
668.625;1372
668.688;1374
668.750;1372
668.813;1372
668.875;1364
668.938;1367
669.000;1384
669.063;1369
669.125;1379
669.188;1369
669.250;1374
669.313;1381
669.375;1367
669.438;1376
669.500;1374
669.563;1372
669.625;1374
669.688;1381
669.750;1376
669.813;1372
669.875;1379
669.938;1367
670.000;1374
670.063;1381
670.125;1374
670.188;1372
670.250;1367
670.313;1374
670.375;1367
670.438;1369
670.500;1372
670.563;1374
670.625;1379
670.688;1376
670.750;1364
670.813;1372
670.875;1379
670.938;1379
671.000;1367
671.063;1376
671.125;1369
671.188;1379
671.250;1362
671.313;1379
671.375;1386
671.438;1369
671.500;1379
671.563;1374
671.625;1376
671.688;1381
671.750;1376
671.813;1376
671.875;1372
671.938;1364
672.000;1367
672.063;1384
672.125;1374
672.188;1374
672.250;1381
672.313;1389
672.375;1376
672.438;1374
672.500;1376
672.563;1372
672.625;1381
672.688;1376
672.750;1374
672.813;1369
672.875;1374
672.938;1376
673.000;1384
673.063;1381
673.125;1381
673.188;1381
673.250;1389
673.313;1376
673.375;1381
673.438;1381
673.500;1386
673.563;1376
673.625;1374
673.688;1389
673.750;1381
673.813;1379
673.875;1384
673.938;1379
674.000;1381
674.063;1379
674.125;1376
674.188;1381
674.250;1386
674.313;1384
674.375;1379
674.438;1379
674.500;1384
674.563;1389
674.625;1381
674.688;1386
674.750;1381
674.813;1379
674.875;1381
674.938;1386
675.000;1381
675.063;1386
675.125;1386
675.188;1386
675.250;1379
675.313;1376
675.375;1384
675.438;1384
675.500;1381
675.563;1374
675.625;1376
675.688;1376
675.750;1374
675.813;1384
675.875;1384
675.938;1394
676.000;1384
676.063;1381
676.125;1374
676.188;1381
676.250;1384
676.313;1376
676.375;1379
676.438;1379
676.500;1381
676.563;1386
676.625;1381
676.688;1381
676.750;1381
676.813;1389
676.875;1384
676.938;1381
677.000;1379
677.063;1386
677.125;1384
677.188;1372
677.250;1379
677.313;1381
677.375;1381
677.438;1367
677.500;1389
677.563;1381
677.625;1381
677.688;1384
677.750;1381
677.813;1384
677.875;1394
677.938;1379
678.000;1389
678.063;1379
678.125;1386
678.188;1372
678.250;1369
678.313;1381
678.375;1379
678.438;1389
678.500;1386
678.563;1384
678.625;1386
678.688;1374
678.750;1374
678.813;1372
678.875;1376
678.938;1384
679.000;1376
679.063;1381
679.125;1376
679.188;1379
679.250;1381
679.313;1376
679.375;1374
679.438;1372
679.500;1367
679.563;1374
679.625;1374
679.688;1386
679.750;1379
679.813;1384
679.875;1376
679.938;1384
680.000;1386
680.063;1386
680.125;1376
680.188;1374
680.250;1379
680.313;1386
680.375;1386
680.438;1394
680.500;1374
680.563;1376
680.625;1376
680.688;1386
680.750;1374
680.813;1394
680.875;1379
680.938;1374
681.000;1376
681.063;1379
681.125;1381
681.188;1394
681.250;1372
681.313;1381
681.375;1376
681.438;1367
681.500;1379
681.563;1376
681.625;1374
681.688;1376
681.750;1384
681.813;1369
681.875;1376
681.938;1384
682.000;1374
682.063;1376
682.125;1379
682.188;1379
682.250;1386
682.313;1386
682.375;1379
682.438;1372
682.500;1379
682.563;1369
682.625;1384
682.688;1374
682.750;1379
682.813;1379
682.875;1374
682.938;1389
683.000;1374
683.063;1381
683.125;1376
683.188;1379
683.250;1381
683.313;1381
683.375;1374
683.438;1379
683.500;1376
683.563;1376
683.625;1376
683.688;1376
683.750;1379
683.813;1384
683.875;1389
683.938;1384
684.000;1381
684.063;1381
684.125;1381
684.188;1381
684.250;1376
684.313;1379
684.375;1384
684.438;1379
684.500;1376
684.563;1376
684.625;1379
684.688;1376
684.750;1379
684.813;1381
684.875;1376
684.938;1376
685.000;1381
685.063;1381
685.125;1379
685.188;1389
685.250;1386
685.313;1379
685.375;1376
685.438;1381
685.500;1384
685.563;1379
685.625;1376
685.688;1386
685.750;1379
685.813;1379
685.875;1386
685.938;1379
686.000;1384
686.063;1386
686.125;1384
686.188;1384
686.250;1381
686.313;1384
686.375;1384
686.438;1379
686.500;1381
686.563;1379
686.625;1384
686.688;1394
686.750;1384
686.813;1391
686.875;1381
686.938;1376
687.000;1381
687.063;1389
687.125;1379
687.188;1384
687.250;1391
687.313;1394
687.375;1384
687.438;1381
687.500;1389
687.563;1374
687.625;1381
687.688;1372
687.750;1379
687.813;1384
687.875;1374
687.938;1379
688.000;1376
688.063;1376
688.125;1376
688.188;1386
688.250;1389
688.313;1386
688.375;1379
688.438;1379
688.500;1379
688.563;1389
688.625;1374
688.688;1379
688.750;1389
688.813;1379
688.875;1376
688.938;1379
689.000;1384
689.063;1386
689.125;1384
689.188;1372
689.250;1381
689.313;1384
689.375;1381
689.438;1386
689.500;1381
689.563;1376
689.625;1386
689.688;1372
689.750;1384
689.813;1376
689.875;1379
689.938;1376
690.000;1372
690.063;1372
690.125;1379
690.188;1381
690.250;1369
690.313;1376
690.375;1381
690.438;1376
690.500;1379
690.563;1376
690.625;1376
690.688;1374
690.750;1386
690.813;1372
690.875;1381
690.938;1381
691.000;1367
691.063;1369
691.125;1386
691.188;1376
691.250;1374
691.313;1376
691.375;1386
691.438;1369
691.500;1376
691.563;1372
691.625;1369
691.688;1374
691.750;1374
691.813;1376
691.875;1372
691.938;1372
692.000;1372
692.063;1379
692.125;1374
692.188;1384
692.250;1384
692.313;1372
692.375;1386
692.438;1374
692.500;1374
692.563;1372
692.625;1376
692.688;1372
692.750;1369
692.813;1376
692.875;1369
692.938;1384
693.000;1379
693.063;1369
693.125;1381
693.188;1374
693.250;1369
693.313;1369
693.375;1362
693.438;1367
693.500;1379
693.563;1379
693.625;1381
693.688;1379
693.750;1367
693.813;1376
693.875;1369
693.938;1381
694.000;1374
694.063;1369
694.125;1379
694.188;1367
694.250;1372
694.313;1374
694.375;1379
694.438;1374
694.500;1374
694.563;1374
694.625;1374
694.688;1372
694.750;1369
694.813;1379
694.875;1374
694.938;1369
695.000;1386
695.063;1364
695.125;1376
695.188;1374
695.250;1369
695.313;1372
695.375;1386
695.438;1374
695.500;1369
695.563;1369
695.625;1369
695.688;1379
695.750;1372
695.813;1369
695.875;1374
695.938;1364
696.000;1369
696.063;1372
696.125;1374
696.188;1376
696.250;1386
696.313;1372
696.375;1369
696.438;1374
696.500;1376
696.563;1384
696.625;1374
696.688;1372
696.750;1381
696.813;1384
696.875;1379
696.938;1372
697.000;1381
697.063;1379
697.125;1381
697.188;1374
697.250;1379
697.313;1379
697.375;1379
697.438;1376
697.500;1379
697.563;1376
697.625;1374
697.688;1381
697.750;1376
697.813;1376
697.875;1376
697.938;1374
698.000;1376
698.063;1374
698.125;1372
698.188;1376
698.250;1381
698.313;1381
698.375;1384
698.438;1376
698.500;1376
698.563;1376
698.625;1376
698.688;1379
698.750;1379
698.813;1381
698.875;1381
698.938;1376
699.000;1379
699.063;1384
699.125;1389
699.188;1379
699.250;1386
699.313;1384
699.375;1376
699.438;1376
699.500;1384
699.563;1376
699.625;1379
699.688;1374
699.750;1372
699.813;1384
699.875;1384
699.938;1384
700.000;1386
700.063;1389
700.125;1386
700.188;1376
700.250;1389
700.313;1384
700.375;1369
700.438;1381
700.500;1379
700.563;1381
700.625;1381
700.688;1386
700.750;1372
700.813;1381
700.875;1376
700.938;1386
701.000;1386
701.063;1386
701.125;1384
701.188;1376
701.250;1376
701.313;1381
701.375;1379
701.438;1376
701.500;1391
701.563;1386
701.625;1384
701.688;1376
701.750;1376
701.813;1374
701.875;1379
701.938;1386
702.000;1379
702.063;1376
702.125;1374
702.188;1379
702.250;1381
702.313;1374
702.375;1384
702.438;1381
702.500;1386
702.563;1372
702.625;1386
702.688;1381
702.750;1384
702.813;1376
702.875;1379
702.938;1376
703.000;1384
703.063;1374
703.125;1372
703.188;1376
703.250;1374
703.313;1379
703.375;1381
703.438;1369
703.500;1384
703.563;1384
703.625;1372
703.688;1364
703.750;1379
703.813;1381
703.875;1381
703.938;1372
704.000;1372
704.063;1379
704.125;1362
704.188;1374
704.250;1381
704.313;1369
704.375;1372
704.438;1367
704.500;1384
704.563;1374
704.625;1372
704.688;1386
704.750;1379
704.813;1381
704.875;1369
704.938;1379
705.000;1376
705.063;1384
705.125;1369
705.188;1389
705.250;1376
705.313;1372
705.375;1376
705.438;1376
705.500;1376
705.563;1386
705.625;1367
705.688;1379
705.750;1374
705.813;1374
705.875;1374
705.938;1379
706.000;1381
706.063;1376
706.125;1379
706.188;1372
706.250;1369
706.313;1384
706.375;1376
706.438;1374
706.500;1374
706.563;1372
706.625;1376
706.688;1369
706.750;1372
706.813;1381
706.875;1379
706.938;1381
707.000;1376
707.063;1384
707.125;1376
707.188;1381
707.250;1372
707.313;1381
707.375;1379
707.438;1374
707.500;1384
707.563;1376
707.625;1379
707.688;1376
707.750;1369
707.813;1379
707.875;1379
707.938;1374
708.000;1379
708.063;1381
708.125;1376
708.188;1374
708.250;1381
708.313;1374
708.375;1379
708.438;1376
708.500;1381
708.563;1381
708.625;1374
708.688;1376
708.750;1372
708.813;1381
708.875;1376
708.938;1379
709.000;1384
709.063;1379
709.125;1376
709.188;1372
709.250;1384
709.313;1391
709.375;1374
709.438;1369
709.500;1381
709.563;1381
709.625;1374
709.688;1386
709.750;1372
709.813;1374
709.875;1389
709.938;1384
710.000;1372
710.063;1384
710.125;1381
710.188;1376
710.250;1386
710.313;1379
710.375;1381
710.438;1386
710.500;1376
710.563;1376
710.625;1379
710.688;1381
710.750;1381
710.813;1374
710.875;1376
710.938;1374
711.000;1376
711.063;1379
711.125;1379
711.188;1374
711.250;1384
711.313;1384
711.375;1386
711.438;1389
711.500;1386
711.563;1389
711.625;1379
711.688;1381
711.750;1381
711.813;1386
711.875;1386
711.938;1391
712.000;1379
712.063;1379
712.125;1386
712.188;1376
712.250;1386
712.313;1386
712.375;1384
712.438;1379
712.500;1376
712.563;1376
712.625;1376
712.688;1384
712.750;1376
712.813;1381
712.875;1369
712.938;1376
713.000;1376
713.063;1381
713.125;1381
713.188;1379
713.250;1386
713.313;1381
713.375;1376
713.438;1379
713.500;1384
713.563;1376
713.625;1384
713.688;1379
713.750;1379
713.813;1379
713.875;1386
713.938;1384
714.000;1379
714.063;1381
714.125;1384
714.188;1376
714.250;1379
714.313;1376
714.375;1374
714.438;1372
714.500;1374
714.563;1389
714.625;1384
714.688;1384
714.750;1374
714.813;1374
714.875;1376
714.938;1376
715.000;1362
715.063;1379
715.125;1381
715.188;1376
715.250;1379
715.313;1364
715.375;1381
715.438;1369
715.500;1372
715.563;1376
715.625;1374
715.688;1372
715.750;1376
715.813;1384
715.875;1376
715.938;1369
716.000;1379
716.063;1379
716.125;1374
716.188;1374
716.250;1379
716.313;1376
716.375;1372
716.438;1376
716.500;1374
716.563;1376
716.625;1367
716.688;1381
716.750;1379
716.813;1376
716.875;1376
716.938;1384
717.000;1376
717.063;1372
717.125;1376
717.188;1379
717.250;1381
717.313;1374
717.375;1374
717.438;1376
717.500;1374
717.563;1376
717.625;1372
717.688;1364
717.750;1367
717.813;1374
717.875;1384
717.938;1379
718.000;1379
718.063;1376
718.125;1372
718.188;1379
718.250;1381
718.313;1374
718.375;1379
718.438;1379
718.500;1381
718.563;1376
718.625;1376
718.688;1381
718.750;1376
718.813;1381
718.875;1374
718.938;1376
719.000;1374
719.063;1376
719.125;1381
719.188;1372
719.250;1369
719.313;1369
719.375;1379
719.438;1384
719.500;1376
719.563;1374
719.625;1369
719.688;1379
719.750;1376
719.813;1379
719.875;1376
719.938;1374
720.000;1379
720.063;1374
720.125;1381
720.188;1369
720.250;1374
720.313;1372
720.375;1379
720.438;1379
720.500;1376
720.563;1372
720.625;1379
720.688;1386
720.750;1379
720.813;1372
720.875;1379
720.938;1384
721.000;1376
721.063;1379
721.125;1379
721.188;1372
721.250;1381
721.313;1381
721.375;1376
721.438;1379
721.500;1381
721.563;1384
721.625;1381
721.688;1369
721.750;1379
721.813;1381
721.875;1381
721.938;1376
722.000;1384
722.063;1379
722.125;1384
722.188;1381
722.250;1376
722.313;1389
722.375;1379
722.438;1394
722.500;1376
722.563;1379
722.625;1386
722.688;1381
722.750;1391
722.813;1391
722.875;1381
722.938;1386
723.000;1379
723.063;1386
723.125;1381
723.188;1372
723.250;1374
723.313;1386
723.375;1379
723.438;1386
723.500;1372
723.563;1381
723.625;1379
723.688;1379
723.750;1386
723.813;1381
723.875;1381
723.938;1379
724.000;1381
724.063;1379
724.125;1381
724.188;1379
724.250;1379
724.313;1381
724.375;1379
724.438;1384
724.500;1389
724.563;1386
724.625;1381
724.688;1376
724.750;1376
724.813;1381
724.875;1384
724.938;1381
725.000;1379
725.063;1381
725.125;1374
725.188;1389
725.250;1389
725.313;1374
725.375;1386
725.438;1376
725.500;1381
725.563;1372
725.625;1384
725.688;1384
725.750;1381
725.813;1379
725.875;1384
725.938;1386
726.000;1374
726.063;1381
726.125;1386
726.188;1374
726.250;1379
726.313;1381
726.375;1379
726.438;1372
726.500;1384
726.563;1376
726.625;1372
726.688;1381
726.750;1379
726.813;1381
726.875;1376
726.938;1384
727.000;1374
727.063;1372
727.125;1379
727.188;1376
727.250;1374
727.313;1376
727.375;1384
727.438;1376
727.500;1384
727.563;1381
727.625;1381
727.688;1379
727.750;1389
727.813;1381
727.875;1376
727.938;1376
728.000;1376
728.063;1379
728.125;1374
728.188;1369
728.250;1381
728.313;1381
728.375;1369
728.438;1376
728.500;1379
728.563;1374
728.625;1386
728.688;1374
728.750;1381
728.813;1374
728.875;1374
728.938;1379
729.000;1374
729.063;1381
729.125;1376
729.188;1374
729.250;1374
729.313;1379
729.375;1379
729.438;1376
729.500;1374
729.563;1374
729.625;1369
729.688;1381
729.750;1376
729.813;1386
729.875;1379
729.938;1376
730.000;1386
730.063;1369
730.125;1384
730.188;1384
730.250;1374
730.313;1379
730.375;1379
730.438;1384
730.500;1384
730.563;1384
730.625;1384
730.688;1374
730.750;1379
730.813;1386
730.875;1372
730.938;1376
731.000;1376
731.063;1391
731.125;1381
731.188;1386
731.250;1376
731.313;1376
731.375;1386
731.438;1379
731.500;1376
731.563;1374
731.625;1384
731.688;1381
731.750;1372
731.813;1379
731.875;1386
731.938;1379
732.000;1369
732.063;1384
732.125;1379
732.188;1372
732.250;1389
732.313;1379
732.375;1376
732.438;1381
732.500;1384
732.563;1381
732.625;1372
732.688;1386
732.750;1386
732.813;1381
732.875;1381
732.938;1386
733.000;1376
733.063;1384
733.125;1384
733.188;1386
733.250;1384
733.313;1386
733.375;1384
733.438;1372
733.500;1384
733.563;1381
733.625;1386
733.688;1379
733.750;1384
733.813;1394
733.875;1381
733.938;1386
734.000;1391
734.063;1381
734.125;1381
734.188;1389
734.250;1386
734.313;1379
734.375;1381
734.438;1381
734.500;1389
734.563;1381
734.625;1386
734.688;1394
734.750;1381
734.813;1381
734.875;1386
734.938;1396
735.000;1394
735.063;1384
735.125;1384
735.188;1386
735.250;1381
735.313;1394
735.375;1381
735.438;1384
735.500;1391
735.563;1391
735.625;1384
735.688;1389
735.750;1376
735.813;1379
735.875;1384
735.938;1384
736.000;1376
736.063;1386
736.125;1379
736.188;1391
736.250;1381
736.313;1391
736.375;1384
736.438;1381
736.500;1389
736.563;1379
736.625;1386
736.688;1386
736.750;1391
736.813;1384
736.875;1389
736.938;1384
737.000;1386
737.063;1381
737.125;1384
737.188;1384
737.250;1386
737.313;1372
737.375;1389
737.438;1394
737.500;1374
737.563;1374
737.625;1384
737.688;1389
737.750;1389
737.813;1384
737.875;1381
737.938;1386
738.000;1389
738.063;1379
738.125;1386
738.188;1384
738.250;1381
738.313;1394
738.375;1379
738.438;1391
738.500;1384
738.563;1379
738.625;1384
738.688;1386
738.750;1379
738.813;1381
738.875;1389
738.938;1381
739.000;1379
739.063;1376
739.125;1384
739.188;1386
739.250;1379
739.313;1374
739.375;1384
739.438;1381
739.500;1379
739.563;1374
739.625;1379
739.688;1376
739.750;1374
739.813;1374
739.875;1391
739.938;1386
740.000;1374
740.063;1384
740.125;1389
740.188;1381
740.250;1384
740.313;1379
740.375;1376
740.438;1379
740.500;1379
740.563;1369
740.625;1374
740.688;1379
740.750;1379
740.813;1374
740.875;1379
740.938;1381
741.000;1379
741.063;1372
741.125;1372
741.188;1376
741.250;1374
741.313;1369
741.375;1369
741.438;1381
741.500;1384
741.563;1381
741.625;1379
741.688;1379
741.750;1379
741.813;1386
741.875;1381
741.938;1374
742.000;1376
742.063;1384
742.125;1384
742.188;1376
742.250;1374
742.313;1374
742.375;1389
742.438;1381
742.500;1367
742.563;1381
742.625;1381
742.688;1381
742.750;1374
742.813;1372
742.875;1389
742.938;1376
743.000;1379
743.063;1376
743.125;1374
743.188;1379
743.250;1379
743.313;1384
743.375;1376
743.438;1384
743.500;1386
743.563;1376
743.625;1384
743.688;1381
743.750;1376
743.813;1372
743.875;1379
743.938;1381
744.000;1381
744.063;1384
744.125;1379
744.188;1384
744.250;1374
744.313;1389
744.375;1376
744.438;1381
744.500;1381
744.563;1379
744.625;1376
744.688;1389
744.750;1381
744.813;1376
744.875;1379
744.938;1386
745.000;1386
745.063;1384
745.125;1389
745.188;1379
745.250;1379
745.313;1389
745.375;1381
745.438;1384
745.500;1379
745.563;1369
745.625;1389
745.688;1391
745.750;1386
745.813;1376
745.875;1374
745.938;1386
746.000;1389
746.063;1381
746.125;1384
746.188;1384
746.250;1384
746.313;1376
746.375;1376
746.438;1374
746.500;1386
746.563;1384
746.625;1386
746.688;1381
746.750;1376
746.813;1379
746.875;1384
746.938;1389
747.000;1379
747.063;1384
747.125;1381
747.188;1394
747.250;1376
747.313;1386
747.375;1384
747.438;1376
747.500;1386
747.563;1386
747.625;1376
747.688;1389
747.750;1384
747.813;1384
747.875;1376
747.938;1381
748.000;1381
748.063;1396
748.125;1394
748.188;1389
748.250;1391
748.313;1389
748.375;1389
748.438;1386
748.500;1379
748.563;1386
748.625;1376
748.688;1384
748.750;1381
748.813;1381
748.875;1384
748.938;1386
749.000;1389
749.063;1374
749.125;1389
749.188;1386
749.250;1381
749.313;1389
749.375;1376
749.438;1374
749.500;1384
749.563;1381
749.625;1391
749.688;1381
749.750;1384
749.813;1386
749.875;1379
749.938;1384
750.000;1381
750.063;1381
750.125;1389
750.188;1389
750.250;1376
750.313;1394
750.375;1379
750.438;1379
750.500;1384
750.563;1372
750.625;1376
750.688;1381
750.750;1391
750.813;1391
750.875;1379
750.938;1384
751.000;1376
751.063;1389
751.125;1379
751.188;1372
751.250;1386
751.313;1386
751.375;1381
751.438;1379
751.500;1381
751.563;1379
751.625;1381
751.688;1374
751.750;1384
751.813;1372
751.875;1384
751.938;1379
752.000;1369
752.063;1374
752.125;1381
752.188;1379
752.250;1379
752.313;1379
752.375;1376
752.438;1379
752.500;1374
752.563;1381
752.625;1381
752.688;1379
752.750;1384
752.813;1374
752.875;1374
752.938;1376
753.000;1379
753.063;1384
753.125;1384
753.188;1384
753.250;1379
753.313;1376
753.375;1369
753.438;1372
753.500;1372
753.563;1376
753.625;1379
753.688;1367
753.750;1372
753.813;1372
753.875;1376
753.938;1374
754.000;1379
754.063;1379
754.125;1376
754.188;1384
754.250;1379
754.313;1379
754.375;1376
754.438;1374
754.500;1372
754.563;1367
754.625;1372
754.688;1386
754.750;1376
754.813;1376
754.875;1374
754.938;1386
755.000;1372
755.063;1379
755.125;1381
755.188;1376
755.250;1372
755.313;1369
755.375;1381
755.438;1386
755.500;1372
755.563;1374
755.625;1372
755.688;1381
755.750;1374
755.813;1372
755.875;1376
755.938;1376
756.000;1372
756.063;1374
756.125;1372
756.188;1384
756.250;1376
756.313;1379
756.375;1379
756.438;1379
756.500;1374
756.563;1381
756.625;1369
756.688;1372
756.750;1379
756.813;1374
756.875;1379
756.938;1381
757.000;1386
757.063;1376
757.125;1376
757.188;1376
757.250;1381
757.313;1376
757.375;1379
757.438;1374
757.500;1379
757.563;1384
757.625;1381
757.688;1381
757.750;1389
757.813;1372
757.875;1384
757.938;1386
758.000;1386
758.063;1376
758.125;1381
758.188;1372
758.250;1369
758.313;1384
758.375;1389
758.438;1381
758.500;1376
758.563;1376
758.625;1374
758.688;1379
758.750;1374
758.813;1384
758.875;1376
758.938;1376
759.000;1381
759.063;1379
759.125;1379
759.188;1376
759.250;1376
759.313;1386
759.375;1386
759.438;1376
759.500;1381
759.563;1381
759.625;1384
759.688;1391
759.750;1384
759.813;1374
759.875;1381
759.938;1381
760.000;1384
760.063;1376
760.125;1379
760.188;1381
760.250;1374
760.313;1384
760.375;1379
760.438;1376
760.500;1381
760.563;1374
760.625;1391
760.688;1394
760.750;1394
760.813;1386
760.875;1379
760.938;1379
761.000;1381
761.063;1381
761.125;1379
761.188;1391
761.250;1394
761.313;1379
761.375;1386
761.438;1381
761.500;1379
761.563;1381
761.625;1386
761.688;1386
761.750;1384
761.813;1379
761.875;1381
761.938;1386
762.000;1381
762.063;1374
762.125;1384
762.188;1386
762.250;1379
762.313;1376
762.375;1384
762.438;1379
762.500;1374
762.563;1381
762.625;1386
762.688;1389
762.750;1379
762.813;1376
762.875;1386
762.938;1386
763.000;1376
763.063;1379
763.125;1386
763.188;1376
763.250;1379
763.313;1384
763.375;1376
763.438;1384
763.500;1374
763.563;1374
763.625;1384
763.688;1379
763.750;1391
763.813;1384
763.875;1379
763.938;1376
764.000;1374
764.063;1391
764.125;1376
764.188;1376
764.250;1384
764.313;1381
764.375;1384
764.438;1376
764.500;1372
764.563;1379
764.625;1372
764.688;1372
764.750;1379
764.813;1374
764.875;1381
764.938;1367
765.000;1386
765.063;1379
765.125;1374
765.188;1376
765.250;1374
765.313;1379
765.375;1381
765.438;1364
765.500;1369
765.563;1386
765.625;1389
765.688;1372
765.750;1386
765.813;1381
765.875;1369
765.938;1372
766.000;1374
766.063;1381
766.125;1384
766.188;1384
766.250;1376
766.313;1376
766.375;1381
766.438;1376
766.500;1379
766.563;1374
766.625;1379
766.688;1376
766.750;1381
766.813;1381
766.875;1386
766.938;1386
767.000;1389
767.063;1381
767.125;1391
767.188;1372
767.250;1372
767.313;1381
767.375;1381
767.438;1381
767.500;1374
767.563;1381
767.625;1374
767.688;1374
767.750;1381
767.813;1379
767.875;1381
767.938;1376
768.000;1386
768.063;1381
768.125;1379
768.188;1376
768.250;1376
768.313;1381
768.375;1384
768.438;1374
768.500;1379
768.563;1391
768.625;1386
768.688;1381
768.750;1367
768.813;1389
768.875;1376
768.938;1389
769.000;1381
769.063;1379
769.125;1374
769.188;1381
769.250;1389
769.313;1374
769.375;1376
769.438;1381
769.500;1381
769.563;1381
769.625;1376
769.688;1384
769.750;1384
769.813;1389
769.875;1376
769.938;1384
770.000;1386
770.063;1379
770.125;1374
770.188;1386
770.250;1381
770.313;1394
770.375;1381
770.438;1381
770.500;1389
770.563;1384
770.625;1376
770.688;1389
770.750;1391
770.813;1386
770.875;1389
770.938;1386
771.000;1396
771.063;1386
771.125;1381
771.188;1389
771.250;1381
771.313;1379
771.375;1376
771.438;1376
771.500;1386
771.563;1381
771.625;1386
771.688;1386
771.750;1384
771.813;1396
771.875;1386
771.938;1386
772.000;1386
772.063;1386
772.125;1389
772.188;1398
772.250;1384
772.313;1379
772.375;1386
772.438;1386
772.500;1386
772.563;1384
772.625;1389
772.688;1376
772.750;1384
772.813;1391
772.875;1396
772.938;1381
773.000;1384
773.063;1389
773.125;1396
773.188;1389
773.250;1386
773.313;1389
773.375;1384
773.438;1391
773.500;1389
773.563;1379
773.625;1389
773.688;1391
773.750;1391
773.813;1389
773.875;1384
773.938;1386
774.000;1386
774.063;1386
774.125;1381
774.188;1389
774.250;1391
774.313;1381
774.375;1386
774.438;1381
774.500;1381
774.563;1386
774.625;1396
774.688;1386
774.750;1376
774.813;1379
774.875;1379
774.938;1389
775.000;1384
775.063;1386
775.125;1391
775.188;1386
775.250;1384
775.313;1389
775.375;1381
775.438;1386
775.500;1381
775.563;1386
775.625;1379
775.688;1374
775.750;1384
775.813;1386
775.875;1386
775.938;1379
776.000;1381
776.063;1381
776.125;1376
776.188;1381
776.250;1386
776.313;1384
776.375;1374
776.438;1389
776.500;1381
776.563;1384
776.625;1384
776.688;1391
776.750;1386
776.813;1391
776.875;1384
776.938;1379
777.000;1376
777.063;1379
777.125;1374
777.188;1379
777.250;1376
777.313;1386
777.375;1381
777.438;1376
777.500;1376
777.563;1381
777.625;1381
777.688;1376
777.750;1376
777.813;1379
777.875;1372
777.938;1381
778.000;1384
778.063;1381
778.125;1384
778.188;1384
778.250;1384
778.313;1374
778.375;1386
778.438;1369
778.500;1389
778.563;1381
778.625;1379
778.688;1389
778.750;1381
778.813;1384
778.875;1381
778.938;1384
779.000;1381
779.063;1379
779.125;1381
779.188;1389
779.250;1391
779.313;1386
779.375;1384
779.438;1391
779.500;1381
779.563;1381
779.625;1381
779.688;1379
779.750;1376
779.813;1372
779.875;1381
779.938;1381
780.000;1386
780.063;1386
780.125;1386
780.188;1376
780.250;1381
780.313;1379
780.375;1384
780.438;1386
780.500;1384
780.563;1386
780.625;1389
780.688;1386
780.750;1389
780.813;1384
780.875;1376
780.938;1389
781.000;1379
781.063;1381
781.125;1376
781.188;1389
781.250;1389
781.313;1386
781.375;1391
781.438;1389
781.500;1384
781.563;1381
781.625;1381
781.688;1396
781.750;1384
781.813;1389
781.875;1381
781.938;1386
782.000;1389
782.063;1384
782.125;1394
782.188;1389
782.250;1381
782.313;1391
782.375;1384
782.438;1376
782.500;1389
782.563;1384
782.625;1386
782.688;1386
782.750;1389
782.813;1391
782.875;1389
782.938;1379
783.000;1381
783.063;1394
783.125;1394
783.188;1386
783.250;1389
783.313;1384
783.375;1389
783.438;1389
783.500;1384
783.563;1384
783.625;1389
783.688;1386
783.750;1391
783.813;1386
783.875;1381
783.938;1386
784.000;1381
784.063;1384
784.125;1386
784.188;1398
784.250;1394
784.313;1394
784.375;1386
784.438;1391
784.500;1391
784.563;1381
784.625;1379
784.688;1394
784.750;1386
784.813;1386
784.875;1396
784.938;1391
785.000;1389
785.063;1386
785.125;1376
785.188;1394
785.250;1396
785.313;1386
785.375;1381
785.438;1381
785.500;1398
785.563;1389
785.625;1391
785.688;1389
785.750;1386
785.813;1389
785.875;1394
785.938;1389
786.000;1381
786.063;1384
786.125;1381
786.188;1391
786.250;1384
786.313;1396
786.375;1391
786.438;1389
786.500;1384
786.563;1389
786.625;1391
786.688;1384
786.750;1386
786.813;1391
786.875;1389
786.938;1381
787.000;1389
787.063;1386
787.125;1396
787.188;1389
787.250;1386
787.313;1396
787.375;1394
787.438;1386
787.500;1384
787.563;1389
787.625;1379
787.688;1381
787.750;1389
787.813;1386
787.875;1394
787.938;1386
788.000;1398
788.063;1391
788.125;1391
788.188;1381
788.250;1381
788.313;1394
788.375;1391
788.438;1379
788.500;1389
788.563;1381
788.625;1391
788.688;1389
788.750;1394
788.813;1384
788.875;1389
788.938;1391
789.000;1398
789.063;1384
789.125;1384
789.188;1391
789.250;1391
789.313;1384
789.375;1376
789.438;1384
789.500;1389
789.563;1379
789.625;1384
789.688;1391
789.750;1384
789.813;1389
789.875;1389
789.938;1376
790.000;1376
790.063;1386
790.125;1386
790.188;1381
790.250;1391
790.313;1384
790.375;1389
790.438;1384
790.500;1386
790.563;1376
790.625;1394
790.688;1386
790.750;1389
790.813;1389
790.875;1394
790.938;1389
791.000;1391
791.063;1389
791.125;1391
791.188;1384
791.250;1386
791.313;1386
791.375;1386
791.438;1389
791.500;1386
791.563;1389
791.625;1374
791.688;1386
791.750;1391
791.813;1389
791.875;1391
791.938;1379
792.000;1394
792.063;1379
792.125;1379
792.188;1379
792.250;1389
792.313;1389
792.375;1391
792.438;1381
792.500;1389
792.563;1396
792.625;1386
792.688;1396
792.750;1381
792.813;1389
792.875;1389
792.938;1384
793.000;1389
793.063;1384
793.125;1386
793.188;1386
793.250;1394
793.313;1389
793.375;1386
793.438;1391
793.500;1386
793.563;1394
793.625;1394
793.688;1376
793.750;1386
793.813;1384
793.875;1389
793.938;1389
794.000;1384
794.063;1386
794.125;1389
794.188;1396
794.250;1376
794.313;1391
794.375;1386
794.438;1389
794.500;1394
794.563;1396
794.625;1394
794.688;1413
794.750;1406
794.813;1408
794.875;1408
794.938;1386
795.000;1391
795.063;1401
795.125;1389
795.188;1384
795.250;1394
795.313;1398
795.375;1389
795.438;1389
795.500;1396
795.563;1384
795.625;1391
795.688;1391
795.750;1384
795.813;1394
795.875;1398
795.938;1398
796.000;1384
796.063;1389
796.125;1398
796.188;1391
796.250;1396
796.313;1391
796.375;1398
796.438;1403
796.500;1381
796.563;1389
796.625;1386
796.688;1379
796.750;1394
796.813;1384
796.875;1386
796.938;1386
797.000;1384
797.063;1394
797.125;1389
797.188;1401
797.250;1391
797.313;1389
797.375;1396
797.438;1379
797.500;1394
797.563;1386
797.625;1381
797.688;1386
797.750;1391
797.813;1386
797.875;1394
797.938;1389
798.000;1386
798.063;1386
798.125;1379
798.188;1386
798.250;1389
798.313;1386
798.375;1394
798.438;1391
798.500;1391
798.563;1379
798.625;1396
798.688;1394
798.750;1391
798.813;1386
798.875;1386
798.938;1389
799.000;1386
799.063;1389
799.125;1391
799.188;1396
799.250;1389
799.313;1389
799.375;1403
799.438;1391
799.500;1386
799.563;1398
799.625;1384
799.688;1391
799.750;1391
799.813;1384
799.875;1386
799.938;1386
800.000;1396
800.063;1394
800.125;1391
800.188;1386
800.250;1396
800.313;1389
800.375;1381
800.438;1384
800.500;1391
800.563;1384
800.625;1394
800.688;1384
800.750;1386
800.813;1386
800.875;1386
800.938;1384
801.000;1386
801.063;1401
801.125;1384
801.188;1389
801.250;1389
801.313;1381
801.375;1386
801.438;1384
801.500;1376
801.563;1386
801.625;1386
801.688;1384
801.750;1374
801.813;1384
801.875;1381
801.938;1389
802.000;1389
802.063;1389
802.125;1372
802.188;1384
802.250;1384
802.313;1394
802.375;1391
802.438;1379
802.500;1369
802.563;1381
802.625;1389
802.688;1386
802.750;1386
802.813;1386
802.875;1398
802.938;1386
803.000;1391
803.063;1381
803.125;1384
803.188;1386
803.250;1389
803.313;1386
803.375;1389
803.438;1384
803.500;1381
803.563;1391
803.625;1389
803.688;1389
803.750;1384
803.813;1386
803.875;1386
803.938;1381
804.000;1381
804.063;1386
804.125;1379
804.188;1391
804.250;1386
804.313;1386
804.375;1394
804.438;1379
804.500;1391
804.563;1394
804.625;1386
804.688;1386
804.750;1381
804.813;1384
804.875;1384
804.938;1389
805.000;1389
805.063;1384
805.125;1386
805.188;1389
805.250;1396
805.313;1381
805.375;1386
805.438;1389
805.500;1389
805.563;1394
805.625;1384
805.688;1389
805.750;1396
805.813;1381
805.875;1394
805.938;1386
806.000;1384
806.063;1396
806.125;1389
806.188;1386
806.250;1391
806.313;1386
806.375;1394
806.438;1389
806.500;1381
806.563;1391
806.625;1386
806.688;1386
806.750;1391
806.813;1396
806.875;1403
806.938;1381
807.000;1389
807.063;1389
807.125;1394
807.188;1389
807.250;1391
807.313;1391
807.375;1389
807.438;1389
807.500;1396
807.563;1391
807.625;1396
807.688;1396
807.750;1391
807.813;1396
807.875;1389
807.938;1394
808.000;1396
808.063;1396
808.125;1389
808.188;1394
808.250;1396
808.313;1403
808.375;1394
808.438;1403
808.500;1394
808.563;1391
808.625;1398
808.688;1386
808.750;1398
808.813;1401
808.875;1384
808.938;1398
809.000;1401
809.063;1396
809.125;1384
809.188;1386
809.250;1403
809.313;1396
809.375;1401
809.438;1394
809.500;1398
809.563;1391
809.625;1384
809.688;1386
809.750;1391
809.813;1401
809.875;1394
809.938;1396
810.000;1389
810.063;1394
810.125;1396
810.188;1401
810.250;1394
810.313;1398
810.375;1403
810.438;1396
810.500;1401
810.563;1394
810.625;1391
810.688;1394
810.750;1406
810.813;1396
810.875;1391
810.938;1391
811.000;1391
811.063;1394
811.125;1386
811.188;1398
811.250;1391
811.313;1398
811.375;1386
811.438;1394
811.500;1386
811.563;1403
811.625;1403
811.688;1394
811.750;1391
811.813;1391
811.875;1394
811.938;1386
812.000;1386
812.063;1396
812.125;1384
812.188;1391
812.250;1398
812.313;1386
812.375;1396
812.438;1389
812.500;1391
812.563;1389
812.625;1394
812.688;1391
812.750;1394
812.813;1391
812.875;1398
812.938;1394
813.000;1389
813.063;1394
813.125;1394
813.188;1384
813.250;1384
813.313;1394
813.375;1398
813.438;1384
813.500;1386
813.563;1384
813.625;1391
813.688;1398
813.750;1389
813.813;1389
813.875;1391
813.938;1381
814.000;1401
814.063;1389
814.125;1384
814.188;1386
814.250;1396
814.313;1389
814.375;1386
814.438;1389
814.500;1391
814.563;1386
814.625;1389
814.688;1384
814.750;1391
814.813;1386
814.875;1391
814.938;1394
815.000;1381
815.063;1386
815.125;1379
815.188;1394
815.250;1396
815.313;1389
815.375;1379
815.438;1386
815.500;1391
815.563;1391
815.625;1394
815.688;1389
815.750;1389
815.813;1398
815.875;1381
815.938;1394
816.000;1391
816.063;1389
816.125;1384
816.188;1398
816.250;1386
816.313;1391
816.375;1389
816.438;1394
816.500;1379
816.563;1394
816.625;1389
816.688;1386
816.750;1391
816.813;1389
816.875;1391
816.938;1396
817.000;1394
817.063;1381
817.125;1384
817.188;1396
817.250;1391
817.313;1396
817.375;1386
817.438;1389
817.500;1376
817.563;1391
817.625;1391
817.688;1386
817.750;1398
817.813;1396
817.875;1389
817.938;1391
818.000;1403
818.063;1391
818.125;1394
818.188;1396
818.250;1391
818.313;1394
818.375;1394
818.438;1396
818.500;1394
818.563;1391
818.625;1381
818.688;1389
818.750;1394
818.813;1391
818.875;1398
818.938;1386
819.000;1401
819.063;1403
819.125;1391
819.188;1396
819.250;1396
819.313;1398
819.375;1408
819.438;1386
819.500;1391
819.563;1406
819.625;1396
819.688;1391
819.750;1403
819.813;1391
819.875;1396
819.938;1386
820.000;1398
820.063;1391
820.125;1401
820.188;1396
820.250;1396
820.313;1396
820.375;1394
820.438;1394
820.500;1394
820.563;1398
820.625;1401
820.688;1398
820.750;1398
820.813;1389
820.875;1389
820.938;1391
821.000;1386
821.063;1391
821.125;1391
821.188;1396
821.250;1391
821.313;1389
821.375;1394
821.438;1401
821.500;1398
821.563;1394
821.625;1391
821.688;1396
821.750;1391
821.813;1396
821.875;1406
821.938;1406
822.000;1391
822.063;1401
822.125;1389
822.188;1396
822.250;1401
822.313;1401
822.375;1403
822.438;1396
822.500;1389
822.563;1391
822.625;1394
822.688;1389
822.750;1391
822.813;1401
822.875;1394
822.938;1398
823.000;1389
823.063;1398
823.125;1396
823.188;1391
823.250;1398
823.313;1396
823.375;1398
823.438;1398
823.500;1406
823.563;1391
823.625;1389
823.688;1398
823.750;1396
823.813;1391
823.875;1394
823.938;1384
824.000;1394
824.063;1398
824.125;1396
824.188;1391
824.250;1391
824.313;1386
824.375;1389
824.438;1396
824.500;1391
824.563;1398
824.625;1398
824.688;1386
824.750;1389
824.813;1394
824.875;1394
824.938;1391
825.000;1386
825.063;1391
825.125;1389
825.188;1394
825.250;1386
825.313;1391
825.375;1379
825.438;1384
825.500;1386
825.563;1391
825.625;1398
825.688;1386
825.750;1394
825.813;1386
825.875;1384
825.938;1389
826.000;1384
826.063;1389
826.125;1391
826.188;1396
826.250;1396
826.313;1384
826.375;1391
826.438;1389
826.500;1391
826.563;1389
826.625;1391
826.688;1384
826.750;1389
826.813;1394
826.875;1389
826.938;1386
827.000;1394
827.063;1396
827.125;1381
827.188;1401
827.250;1386
827.313;1384
827.375;1381
827.438;1386
827.500;1384
827.563;1389
827.625;1389
827.688;1396
827.750;1398
827.813;1389
827.875;1396
827.938;1396
828.000;1394
828.063;1386
828.125;1394
828.188;1394
828.250;1394
828.313;1391
828.375;1389
828.438;1391
828.500;1381
828.563;1396
828.625;1401
828.688;1398
828.750;1389
828.813;1389
828.875;1396
828.938;1389
829.000;1391
829.063;1391
829.125;1391
829.188;1391
829.250;1386
829.313;1398
829.375;1391
829.438;1386
829.500;1394
829.563;1394
829.625;1398
829.688;1389
829.750;1394
829.813;1389
829.875;1391
829.938;1396
830.000;1391
830.063;1398
830.125;1396
830.188;1391
830.250;1398
830.313;1396
830.375;1396
830.438;1396
830.500;1389
830.563;1391
830.625;1398
830.688;1396
830.750;1391
830.813;1394
830.875;1401
830.938;1391
831.000;1389
831.063;1394
831.125;1394
831.188;1396
831.250;1394
831.313;1401
831.375;1396
831.438;1394
831.500;1386
831.563;1396
831.625;1386
831.688;1394
831.750;1391
831.813;1391
831.875;1389
831.938;1394
832.000;1398
832.063;1394
832.125;1398
832.188;1394
832.250;1403
832.313;1401
832.375;1396
832.438;1394
832.500;1391
832.563;1396
832.625;1391
832.688;1398
832.750;1406
832.813;1386
832.875;1391
832.938;1389
833.000;1391
833.063;1396
833.125;1394
833.188;1398
833.250;1403
833.313;1396
833.375;1391
833.438;1391
833.500;1401
833.563;1401
833.625;1396
833.688;1398
833.750;1381
833.813;1396
833.875;1403
833.938;1396
834.000;1398
834.063;1394
834.125;1396
834.188;1394
834.250;1396
834.313;1394
834.375;1384
834.438;1394
834.500;1401
834.563;1396
834.625;1406
834.688;1389
834.750;1394
834.813;1396
834.875;1394
834.938;1401
835.000;1398
835.063;1401
835.125;1394
835.188;1396
835.250;1384
835.313;1396
835.375;1398
835.438;1389
835.500;1391
835.563;1401
835.625;1396
835.688;1389
835.750;1394
835.813;1396
835.875;1403
835.938;1396
836.000;1391
836.063;1408
836.125;1394
836.188;1391
836.250;1394
836.313;1384
836.375;1398
836.438;1396
836.500;1391
836.563;1394
836.625;1394
836.688;1391
836.750;1394
836.813;1389
836.875;1391
836.938;1381
837.000;1389
837.063;1394
837.125;1394
837.188;1401
837.250;1389
837.313;1389
837.375;1391
837.438;1394
837.500;1394
837.563;1396
837.625;1394
837.688;1396
837.750;1391
837.813;1396
837.875;1401
837.938;1391
838.000;1396
838.063;1396
838.125;1384
838.188;1384
838.250;1394
838.313;1396
838.375;1391
838.438;1386
838.500;1386
838.563;1389
838.625;1394
838.688;1386
838.750;1396
838.813;1391
838.875;1391
838.938;1389
839.000;1396
839.063;1389
839.125;1376
839.188;1389
839.250;1394
839.313;1396
839.375;1394
839.438;1386
839.500;1396
839.563;1394
839.625;1386
839.688;1389
839.750;1389
839.813;1391
839.875;1394
839.938;1386
840.000;1381
840.063;1389
840.125;1394
840.188;1394
840.250;1396
840.313;1394
840.375;1389
840.438;1394
840.500;1391
840.563;1396
840.625;1391
840.688;1394
840.750;1394
840.813;1394
840.875;1391
840.938;1394
841.000;1386
841.063;1394
841.125;1389
841.188;1396
841.250;1389
841.313;1391
841.375;1394
841.438;1389
841.500;1396
841.563;1386
841.625;1394
841.688;1384
841.750;1389
841.813;1391
841.875;1389
841.938;1391
842.000;1394
842.063;1391
842.125;1391
842.188;1394
842.250;1396
842.313;1401
842.375;1394
842.438;1391
842.500;1403
842.563;1384
842.625;1391
842.688;1389
842.750;1403
842.813;1391
842.875;1391
842.938;1394
843.000;1398
843.063;1391
843.125;1398
843.188;1394
843.250;1389
843.313;1398
843.375;1389
843.438;1394
843.500;1391
843.563;1391
843.625;1398
843.688;1394
843.750;1396
843.813;1391
843.875;1389
843.938;1391
844.000;1398
844.063;1401
844.125;1403
844.188;1389
844.250;1391
844.313;1403
844.375;1396
844.438;1394
844.500;1394
844.563;1394
844.625;1403
844.688;1396
844.750;1396
844.813;1396
844.875;1391
844.938;1391
845.000;1394
845.063;1401
845.125;1391
845.188;1406
845.250;1396
845.313;1389
845.375;1394
845.438;1389
845.500;1403
845.563;1394
845.625;1396
845.688;1396
845.750;1396
845.813;1394
845.875;1396
845.938;1396
846.000;1403
846.063;1398
846.125;1394
846.188;1394
846.250;1396
846.313;1396
846.375;1394
846.438;1389
846.500;1398
846.563;1401
846.625;1396
846.688;1396
846.750;1398
846.813;1396
846.875;1394
846.938;1386
847.000;1398
847.063;1403
847.125;1401
847.188;1391
847.250;1396
847.313;1391
847.375;1394
847.438;1398
847.500;1396
847.563;1398
847.625;1401
847.688;1396
847.750;1394
847.813;1401
847.875;1398
847.938;1389
848.000;1389
848.063;1391
848.125;1394
848.188;1396
848.250;1391
848.313;1401
848.375;1394
848.438;1386
848.500;1394
848.563;1391
848.625;1391
848.688;1398
848.750;1394
848.813;1389
848.875;1394
848.938;1394
849.000;1394
849.063;1394
849.125;1403
849.188;1391
849.250;1391
849.313;1394
849.375;1403
849.438;1384
849.500;1394
849.563;1389
849.625;1398
849.688;1396
849.750;1381
849.813;1389
849.875;1398
849.938;1389
850.000;1396
850.063;1398
850.125;1391
850.188;1394
850.250;1396
850.313;1389
850.375;1394
850.438;1394
850.500;1396
850.563;1398
850.625;1401
850.688;1398
850.750;1396
850.813;1391
850.875;1394
850.938;1391
851.000;1398
851.063;1396
851.125;1376
851.188;1384
851.250;1386
851.313;1398
851.375;1394
851.438;1398
851.500;1394
851.563;1391
851.625;1403
851.688;1386
851.750;1391
851.813;1391
851.875;1384
851.938;1391
852.000;1389
852.063;1391
852.125;1394
852.188;1389
852.250;1401
852.313;1391
852.375;1396
852.438;1394
852.500;1386
852.563;1396
852.625;1391
852.688;1391
852.750;1391
852.813;1394
852.875;1394
852.938;1381
853.000;1394
853.063;1386
853.125;1391
853.188;1394
853.250;1394
853.313;1386
853.375;1389
853.438;1396
853.500;1391
853.563;1384
853.625;1401
853.688;1389
853.750;1391
853.813;1389
853.875;1394
853.938;1391
854.000;1391
854.063;1391
854.125;1391
854.188;1394
854.250;1394
854.313;1394
854.375;1396
854.438;1391
854.500;1389
854.563;1391
854.625;1394
854.688;1391
854.750;1391
854.813;1398
854.875;1394
854.938;1398
855.000;1391
855.063;1396
855.125;1398
855.188;1396
855.250;1394
855.313;1391
855.375;1394
855.438;1401
855.500;1389
855.563;1398
855.625;1394
855.688;1396
855.750;1403
855.813;1396
855.875;1394
855.938;1398
856.000;1396
856.063;1398
856.125;1384
856.188;1386
856.250;1394
856.313;1394
856.375;1403
856.438;1394
856.500;1394
856.563;1396
856.625;1396
856.688;1398
856.750;1394
856.813;1401
856.875;1398
856.938;1396
857.000;1394
857.063;1398
857.125;1394
857.188;1401
857.250;1391
857.313;1398
857.375;1391
857.438;1391
857.500;1396
857.563;1396
857.625;1389
857.688;1398
857.750;1389
857.813;1394
857.875;1396
857.938;1386
858.000;1394
858.063;1398
858.125;1394
858.188;1384
858.250;1398
858.313;1396
858.375;1403
858.438;1396
858.500;1396
858.563;1398
858.625;1394
858.688;1396
858.750;1396
858.813;1389
858.875;1396
858.938;1403
859.000;1403
859.063;1401
859.125;1389
859.188;1398
859.250;1398
859.313;1394
859.375;1403
859.438;1396
859.500;1396
859.563;1394
859.625;1384
859.688;1386
859.750;1401
859.813;1391
859.875;1391
859.938;1394
860.000;1396
860.063;1394
860.125;1396
860.188;1403
860.250;1394
860.313;1398
860.375;1394
860.438;1394
860.500;1391
860.563;1394
860.625;1396
860.688;1396
860.750;1403
860.813;1394
860.875;1398
860.938;1389
861.000;1389
861.063;1394
861.125;1396
861.188;1394
861.250;1398
861.313;1389
861.375;1396
861.438;1391
861.500;1386
861.563;1389
861.625;1396
861.688;1398
861.750;1396
861.813;1403
861.875;1391
861.938;1396
862.000;1391
862.063;1396
862.125;1386
862.188;1396
862.250;1396
862.313;1391
862.375;1398
862.438;1394
862.500;1396
862.563;1381
862.625;1403
862.688;1396
862.750;1394
862.813;1386
862.875;1401
862.938;1386
863.000;1396
863.063;1398
863.125;1394
863.188;1398
863.250;1391
863.313;1396
863.375;1396
863.438;1391
863.500;1394
863.563;1391
863.625;1396
863.688;1398
863.750;1384
863.813;1394
863.875;1391
863.938;1394
864.000;1389
864.063;1403
864.125;1384
864.188;1394
864.250;1391
864.313;1398
864.375;1403
864.438;1401
864.500;1394
864.563;1396
864.625;1396
864.688;1396
864.750;1389
864.813;1398
864.875;1386
864.938;1396
865.000;1394
865.063;1394
865.125;1401
865.188;1401
865.250;1386
865.313;1396
865.375;1401
865.438;1403
865.500;1394
865.563;1396
865.625;1391
865.688;1396
865.750;1394
865.813;1396
865.875;1391
865.938;1396
866.000;1398
866.063;1394
866.125;1401
866.188;1396
866.250;1396
866.313;1398
866.375;1403
866.438;1398
866.500;1396
866.563;1401
866.625;1391
866.688;1401
866.750;1403
866.813;1398
866.875;1394
866.938;1394
867.000;1389
867.063;1398
867.125;1401
867.188;1403
867.250;1396
867.313;1403
867.375;1401
867.438;1406
867.500;1401
867.563;1391
867.625;1406
867.688;1394
867.750;1401
867.813;1401
867.875;1394
867.938;1401
868.000;1403
868.063;1406
868.125;1401
868.188;1398
868.250;1394
868.313;1411
868.375;1401
868.438;1403
868.500;1403
868.563;1398
868.625;1403
868.688;1398
868.750;1401
868.813;1403
868.875;1406
868.938;1406
869.000;1411
869.063;1401
869.125;1396
869.188;1401
869.250;1403
869.313;1391
869.375;1394
869.438;1389
869.500;1403
869.563;1403
869.625;1401
869.688;1398
869.750;1398
869.813;1401
869.875;1406
869.938;1403
870.000;1406
